timestamps,TP9,AF7,AF8,TP10,Right AUX
1761606145.633,-21.484,-16.602,-38.086,-49.316,0.000
1761606145.637,-5.859,-18.555,-36.621,-40.527,0.000
1761606145.641,-16.113,-20.996,-32.715,-37.598,0.000
1761606145.645,-29.297,-22.461,-33.203,-35.156,0.000
1761606145.649,-41.504,-23.438,-37.109,-26.855,0.000
1761606145.653,-39.062,-20.508,-36.621,-30.762,0.000
1761606145.657,-11.719,-20.020,-34.180,-40.039,0.000
1761606145.660,-5.371,-23.926,-38.574,-44.922,0.000
1761606145.664,-17.090,-21.973,-39.062,-48.828,0.000
1761606145.668,-41.016,-23.926,-37.109,-48.340,0.000
1761606145.672,-61.523,-24.902,-37.598,-43.457,0.000
1761606145.676,-44.434,-19.043,-34.180,-38.574,0.000
1761606145.680,-40.527,-18.555,-35.156,-39.551,0.000
1761606145.684,-54.688,-18.066,-35.645,-37.109,0.000
1761606145.688,-47.363,-17.578,-27.832,-36.133,0.000
1761606145.692,-42.480,-18.066,-26.855,-41.016,0.000
1761606145.696,-45.410,-21.484,-30.762,-42.480,0.000
1761606145.700,-37.598,-21.484,-31.738,-36.133,0.000
1761606145.703,-38.574,-24.414,-34.668,-25.879,0.000
1761606145.707,-45.898,-26.367,-31.250,-24.414,0.000
1761606145.711,-38.574,-22.949,-27.832,-38.086,0.000
1761606145.715,-28.809,-28.320,-33.691,-48.828,0.000
1761606145.719,-20.508,-31.738,-36.621,-55.664,0.000
1761606145.723,-29.785,-21.973,-32.715,-50.781,0.000
1761606145.727,-42.480,-19.531,-22.461,-38.086,0.000
1761606145.731,-36.621,-24.902,-24.414,-33.691,0.000
1761606145.735,-23.926,-23.438,-34.180,-42.969,0.000
1761606145.739,-27.344,-20.020,-39.062,-47.852,0.000
1761606145.743,-30.762,-21.484,-40.527,-47.852,0.000
1761606145.746,-17.090,-23.438,-40.527,-44.434,0.000
1761606145.750,2.930,-22.949,-37.598,-36.133,0.000
1761606145.754,1.953,-20.508,-32.715,-27.344,0.000
1761606145.758,-20.020,-22.949,-31.738,-20.508,0.000
1761606145.762,-30.762,-27.344,-35.156,-28.320,0.000
1761606145.766,-44.922,-16.602,-32.715,-24.414,0.000
1761606145.770,-54.199,-17.578,-24.414,-15.137,0.000
1761606145.774,-38.574,-24.414,-27.832,-13.672,0.000
1761606145.778,-20.996,-23.438,-32.227,-21.484,0.000
1761606145.782,-24.414,-25.391,-33.203,-19.043,0.000
1761606145.785,-32.227,-27.344,-35.645,-21.973,0.000
1761606145.789,-27.344,-24.414,-35.645,-29.785,0.000
1761606145.793,-20.020,-20.996,-33.691,-18.066,0.000
1761606145.797,-25.879,-20.020,-35.156,-15.625,0.000
1761606145.801,-20.996,-17.578,-35.645,-24.902,0.000
1761606145.805,-22.949,-24.902,-36.133,-28.320,0.000
1761606145.809,-24.414,-30.762,-34.180,-10.742,0.000
1761606145.813,-20.996,-29.785,-32.227,-12.695,0.000
1761606145.817,-16.602,-30.273,-35.156,-27.832,0.000
1761606145.821,-9.277,-27.832,-33.203,-12.695,0.000
1761606145.825,-18.555,-31.250,-35.645,-12.695,0.000
1761606145.828,-22.949,-34.668,-35.156,-24.414,0.000
1761606145.832,-18.066,-34.180,-30.762,-13.672,0.000
1761606145.836,-4.883,-30.273,-27.344,0.000,0.000
1761606145.840,1.953,-24.414,-25.391,-6.348,0.000
1761606145.844,-3.906,-23.438,-27.344,-15.137,0.000
1761606145.848,3.418,-26.367,-27.344,-17.578,0.000
1761606145.852,8.301,-36.133,-25.879,-8.301,0.000
1761606145.856,3.906,-36.133,-25.391,-4.395,0.000
1761606145.860,-1.465,-33.691,-27.344,-12.207,0.000
1761606145.864,18.066,-32.715,-25.879,-11.719,0.000
1761606145.868,0.000,-28.809,-24.902,-8.789,0.000
1761606145.871,0.000,-30.273,-25.391,-8.789,0.000
1761606145.875,0.000,-29.785,-26.367,-14.160,0.000
1761606145.879,0.000,-25.879,-24.414,-2.441,0.000
1761606145.883,0.000,-26.367,-23.438,3.906,0.000
1761606145.887,0.000,-30.762,-24.902,-2.930,0.000
1761606145.891,0.000,-31.738,-23.438,-4.883,0.000
1761606145.895,0.000,-35.645,-31.738,-12.207,0.000
1761606145.899,0.000,-40.039,-34.668,-7.812,0.000
1761606145.903,0.000,-29.297,-28.809,0.977,0.000
1761606145.907,0.000,-29.785,-29.297,-5.371,0.000
1761606145.910,0.000,-34.180,-31.738,-12.695,0.000
1761606145.914,-17.090,-32.227,-35.156,-20.996,0.000
1761606145.918,-10.742,-33.203,-37.598,-25.879,0.000
1761606145.922,-30.273,-36.621,-35.156,-19.043,0.000
1761606145.926,-34.180,-36.621,-35.156,-14.648,0.000
1761606145.930,-31.738,-28.320,-38.574,-25.879,0.000
1761606145.934,-32.227,-29.785,-41.504,-44.434,0.000
1761606145.938,-32.227,-38.086,-37.598,-44.434,0.000
1761606145.942,-33.203,-42.969,-34.668,-40.527,0.000
1761606145.946,-27.344,-39.551,-35.645,-37.598,0.000
1761606145.950,-19.531,-30.762,-30.762,-40.039,0.000
1761606145.953,-21.973,-30.273,-30.273,-45.410,0.000
1761606145.957,-26.367,-38.086,-29.785,-36.133,0.000
1761606145.961,-14.648,-39.551,-27.344,-19.531,0.000
1761606145.965,-10.254,-37.109,-24.902,-20.996,0.000
1761606145.969,-16.602,-31.250,-20.996,-36.133,0.000
1761606145.973,-26.855,-27.344,-24.414,-31.738,0.000
1761606145.977,-22.949,-31.250,-30.273,-33.203,0.000
1761606145.981,-20.996,-36.621,-30.273,-35.156,0.000
1761606145.985,-24.902,-36.621,-29.297,-23.926,0.000
1761606145.989,-16.602,-35.156,-28.809,-16.113,0.000
1761606145.993,-13.672,-34.180,-24.902,-21.973,0.000
1761606145.996,-6.348,-28.320,-23.438,-29.297,0.000
1761606146.000,-6.348,-25.391,-24.902,-29.785,0.000
1761606146.004,-11.230,-34.668,-26.855,-21.973,0.000
1761606146.008,-23.438,-40.527,-30.273,-18.555,0.000
1761606146.012,-19.043,-29.297,-31.738,-25.879,0.000
1761606146.016,-6.836,-33.203,-35.645,-25.391,0.000
1761606146.020,-5.859,-42.480,-30.762,-23.438,0.000
1761606146.024,-11.230,-38.086,-27.344,-27.344,0.000
1761606146.028,-27.832,-37.598,-29.297,-32.227,0.000
1761606146.032,-21.484,-41.016,-28.809,-35.156,0.000
1761606146.035,-13.672,-42.480,-31.250,-35.156,0.000
1761606146.039,-19.043,-40.527,-28.320,-33.691,0.000
1761606146.043,-19.531,-39.551,-26.855,-34.180,0.000
1761606146.047,-20.996,-42.969,-32.227,-31.250,0.000
1761606146.051,-26.367,-35.156,-30.762,-31.250,0.000
1761606146.055,-36.621,-33.691,-26.367,-32.227,0.000
1761606146.059,-32.715,-41.992,-26.855,-29.785,0.000
1761606146.063,-32.715,-43.945,-24.414,-20.996,0.000
1761606146.067,-43.945,-45.898,-23.438,-17.578,0.000
1761606146.071,-36.621,-45.410,-24.902,-22.949,0.000
1761606146.075,-26.367,-41.504,-27.832,-28.809,0.000
1761606146.078,-10.742,-39.551,-25.879,-8.789,0.000
1761606146.082,-6.836,-38.086,-20.508,-5.859,0.000
1761606146.086,-38.086,-37.598,-11.230,-36.133,0.000
1761606146.090,-50.781,-39.551,-2.441,-38.574,0.000
1761606146.094,-56.641,-41.992,-2.930,-41.992,0.000
1761606146.098,-62.988,-42.969,-6.348,-50.781,0.000
1761606146.102,-56.152,-39.062,-11.719,-48.828,0.000
1761606146.106,-43.945,-38.086,-11.230,-48.828,0.000
1761606146.110,-39.062,-32.227,-8.301,-41.992,0.000
1761606146.114,-37.109,-29.297,-12.695,-35.156,0.000
1761606146.117,-32.715,-31.250,-14.160,-31.250,0.000
1761606146.121,-38.574,-34.180,-14.160,-28.320,0.000
1761606146.125,-36.621,-36.621,-15.137,-20.020,0.000
1761606146.129,-35.645,-34.668,-21.484,-22.461,0.000
1761606146.133,-29.785,-35.645,-20.508,-25.391,0.000
1761606146.137,-19.531,-33.203,-19.043,-20.508,0.000
1761606146.141,-26.367,-28.320,-24.902,-29.297,0.000
1761606146.145,-30.762,-30.762,-22.949,-29.297,0.000
1761606146.149,-33.203,-35.156,-23.438,-29.785,0.000
1761606146.153,-40.039,-38.086,-31.250,-27.344,0.000
1761606146.157,-41.016,-36.133,-32.715,-21.484,0.000
1761606146.160,-38.574,-31.250,-27.832,-30.273,0.000
1761606146.164,-32.715,-27.344,-28.809,-37.109,0.000
1761606146.168,-28.809,-28.320,-27.344,-38.086,0.000
1761606146.172,-26.855,-27.832,-31.250,-39.062,0.000
1761606146.176,-21.484,-30.762,-32.715,-39.062,0.000
1761606146.180,-15.137,-32.227,-28.320,-37.598,0.000
1761606146.184,-26.855,-32.715,-25.879,-26.855,0.000
1761606146.188,-26.367,-33.203,-23.926,-16.113,0.000
1761606146.192,-20.508,-29.785,-26.367,-25.391,0.000
1761606146.196,-25.391,-29.297,-28.809,-30.273,0.000
1761606146.200,-29.785,-31.250,-27.344,-24.902,0.000
1761606146.203,-31.250,-34.668,-27.832,-24.902,0.000
1761606146.207,-30.273,-35.156,-27.832,-27.832,0.000
1761606146.211,-35.645,-32.227,-28.809,-33.203,0.000
1761606146.215,-33.203,-33.691,-30.762,-32.715,0.000
1761606146.219,-26.855,-35.156,-29.297,-24.902,0.000
1761606146.223,-35.156,-31.738,-33.203,-27.832,0.000
1761606146.227,-32.227,-27.344,-35.645,-33.691,0.000
1761606146.231,-32.227,-28.320,-31.250,-22.949,0.000
1761606146.235,-41.504,-28.320,-33.691,-21.973,0.000
1761606146.239,-40.039,-32.227,-32.227,-38.574,0.000
1761606146.243,-41.016,-29.297,-26.367,-36.621,0.000
1761606146.246,-38.086,-20.508,-31.738,-32.227,0.000
1761606146.250,-34.668,-20.996,-30.762,-37.109,0.000
1761606146.254,-42.480,-20.996,-20.508,-32.715,0.000
1761606146.258,-47.852,-23.438,-19.043,-39.551,0.000
1761606146.262,-52.246,-19.531,-22.949,-57.617,0.000
1761606146.266,-54.199,-11.719,-29.785,-53.711,0.000
1761606146.270,-55.176,-14.648,-24.902,-43.945,0.000
1761606146.274,-58.105,-14.648,-24.414,-44.922,0.000
1761606146.278,-59.082,-13.184,-28.809,-52.246,0.000
1761606146.282,-63.965,-2.441,-20.996,-55.664,0.000
1761606146.285,-71.777,17.090,-11.230,-63.477,0.000
1761606146.289,-69.336,4.883,-14.160,-62.012,0.000
1761606146.293,-50.293,-19.043,-31.250,-45.410,0.000
1761606146.297,-41.992,1.465,-1.465,-43.457,0.000
1761606146.301,-69.336,2.930,23.926,-70.801,0.000
1761606146.305,-100.586,-18.555,13.184,-95.703,0.000
1761606146.309,-121.582,-13.184,22.461,-107.910,0.000
1761606146.313,-138.184,-10.742,48.828,-125.977,0.000
1761606146.317,-160.645,-27.344,70.312,-131.836,0.000
1761606146.321,-164.062,-39.551,69.824,-131.348,0.000
1761606146.325,-174.316,-38.086,79.590,-146.973,0.000
1761606146.328,-199.219,-33.203,120.117,-166.992,0.000
1761606146.332,-204.102,-49.805,133.789,-172.852,0.000
1761606146.336,-192.871,-67.383,132.324,-140.625,0.000
1761606146.340,-201.172,-67.383,147.461,-140.137,0.000
1761606146.344,-217.773,-68.848,161.133,-157.227,0.000
1761606146.348,-223.633,-77.637,166.016,-157.227,0.000
1761606146.352,-196.777,-84.961,164.551,-137.207,0.000
1761606146.356,-180.664,-89.355,147.949,-134.766,0.000
1761606146.360,-191.406,-91.797,143.066,-145.996,0.000
1761606146.364,-179.688,-98.145,150.391,-126.953,0.000
1761606146.368,-159.180,-83.008,134.766,-116.211,0.000
1761606146.371,-161.133,-73.242,121.582,-129.395,0.000
1761606146.375,-166.504,-76.660,121.094,-129.883,0.000
1761606146.379,-159.668,-82.031,128.418,-109.863,0.000
1761606146.383,-140.137,-75.195,114.746,-97.168,0.000
1761606146.387,-114.746,-54.199,86.914,-88.867,0.000
1761606146.391,-103.027,-55.176,81.543,-82.520,0.000
1761606146.395,-104.004,-49.316,71.777,-91.797,0.000
1761606146.399,-98.633,-32.715,62.500,-89.844,0.000
1761606146.403,-85.938,-23.926,51.758,-79.102,0.000
1761606146.407,-94.727,-34.668,35.645,-84.473,0.000
1761606146.410,-96.191,-46.875,20.996,-66.406,0.000
1761606146.414,-73.730,-35.645,21.973,-54.199,0.000
1761606146.418,-70.312,-21.484,28.809,-78.125,0.000
1761606146.422,-83.496,-31.250,14.160,-77.637,0.000
1761606146.426,-82.520,-38.086,-12.695,-76.172,0.000
1761606146.430,-64.453,-16.113,-19.531,-74.219,0.000
1761606146.434,-76.172,-6.348,-15.625,-84.473,0.000
1761606146.438,-94.727,-18.555,-9.766,-91.309,0.000
1761606146.442,-76.172,-16.113,-8.301,-72.266,0.000
1761606146.446,-67.383,-15.625,-7.812,-74.707,0.000
1761606146.450,-69.336,-12.695,-24.902,-81.055,0.000
1761606146.453,-67.383,-7.324,-48.340,-73.242,0.000
1761606146.457,-54.199,-2.441,-37.598,-53.223,0.000
1761606146.461,-61.523,0.977,-26.367,-62.500,0.000
1761606146.465,-89.844,-14.160,-35.645,-97.656,0.000
1761606146.469,-70.801,-12.695,-39.062,-77.637,0.000
1761606146.473,-54.199,-5.859,-31.250,-56.641,0.000
1761606146.477,-64.453,-7.812,-29.297,-70.312,0.000
1761606146.481,-70.801,-5.371,-32.227,-81.543,0.000
1761606146.485,-61.035,8.789,-32.715,-83.008,0.000
1761606146.489,-72.754,7.324,-26.367,-91.309,0.000
1761606146.493,-88.867,-12.695,-18.555,-90.332,0.000
1761606146.496,-70.312,1.465,-27.344,-78.613,0.000
1761606146.500,-71.777,10.742,-26.855,-85.449,0.000
1761606146.504,-73.242,26.367,-16.602,-86.914,0.000
1761606146.508,-78.125,28.809,-15.625,-89.355,0.000
1761606146.512,-87.402,-1.465,-10.254,-94.727,0.000
1761606146.516,-92.773,5.859,-6.836,-98.633,0.000
1761606146.520,-92.285,28.809,-6.348,-92.773,0.000
1761606146.524,-84.473,24.902,-12.695,-81.543,0.000
1761606146.528,-94.727,11.719,-16.113,-95.215,0.000
1761606146.532,-96.191,15.137,-8.301,-105.469,0.000
1761606146.535,-109.375,31.250,0.488,-116.211,0.000
1761606146.539,-119.629,36.621,4.395,-121.094,0.000
1761606146.543,-105.469,25.391,8.301,-100.098,0.000
1761606146.547,-102.051,19.043,12.207,-101.562,0.000
1761606146.551,-107.422,23.438,8.301,-123.535,0.000
1761606146.555,-91.309,23.926,1.953,-121.582,0.000
1761606146.559,-93.262,18.066,15.625,-105.469,0.000
1761606146.563,-123.535,17.578,14.160,-117.188,0.000
1761606146.567,-124.023,22.461,1.953,-125.977,0.000
1761606146.571,-111.328,27.344,-2.930,-123.535,0.000
1761606146.575,-113.770,27.344,-1.953,-126.953,0.000
1761606146.578,-113.281,8.301,22.461,-112.793,0.000
1761606146.582,-117.676,-9.277,28.320,-119.629,0.000
1761606146.586,-111.816,0.977,11.230,-114.746,0.000
1761606146.590,-116.211,9.277,8.301,-115.723,0.000
1761606146.594,-124.512,-0.977,12.695,-124.512,0.000
1761606146.598,-107.422,-6.836,9.277,-105.957,0.000
1761606146.602,-107.422,15.625,3.418,-106.445,0.000
1761606146.606,-116.211,18.066,2.441,-118.164,0.000
1761606146.610,-107.422,-3.906,-3.418,-112.305,0.000
1761606146.614,-103.027,-1.953,-9.766,-113.770,0.000
1761606146.618,-110.840,6.836,-8.301,-118.652,0.000
1761606146.621,-104.492,0.488,-5.371,-103.516,0.000
1761606146.625,-101.074,-9.277,7.812,-101.074,0.000
1761606146.629,-105.469,-2.441,11.719,-108.398,0.000
1761606146.633,-105.469,1.953,-2.930,-113.281,0.000
1761606146.637,-104.492,-6.836,-14.648,-115.234,0.000
1761606146.641,-86.426,-2.930,-11.230,-88.379,0.000
1761606146.645,-86.426,-7.324,-8.789,-80.566,0.000
1761606146.649,-103.516,-16.602,1.465,-90.332,0.000
1761606146.653,-100.586,-17.578,8.789,-95.703,0.000
1761606146.657,-91.797,-9.277,-12.695,-105.469,0.000
1761606146.660,-88.379,-5.371,-14.648,-99.609,0.000
1761606146.664,-99.121,-17.090,0.000,-96.191,0.000
1761606146.668,-94.727,-14.160,-1.465,-92.285,0.000
1761606146.672,-81.543,-8.789,0.977,-89.844,0.000
1761606146.676,-78.125,-13.672,-2.930,-82.031,0.000
1761606146.680,-66.895,-17.090,-9.766,-77.637,0.000
1761606146.684,-71.777,-17.090,1.953,-80.078,0.000
1761606146.688,-82.031,-27.344,3.418,-81.055,0.000
1761606146.692,-73.730,-40.527,-8.789,-67.871,0.000
1761606146.696,-62.012,-28.320,-16.113,-58.594,0.000
1761606146.700,-73.242,-20.508,-24.414,-78.125,0.000
1761606146.703,-78.613,-27.344,-27.832,-82.031,0.000
1761606146.707,-59.082,-20.020,-20.020,-60.059,0.000
1761606146.711,-49.805,-20.996,-10.254,-54.199,0.000
1761606146.715,-62.988,-26.855,-20.508,-65.918,0.000
1761606146.719,-56.641,-16.602,-24.414,-53.223,0.000
1761606146.723,-38.086,-20.996,-21.973,-38.086,0.000
1761606146.727,-30.762,-27.344,-22.949,-32.227,0.000
1761606146.731,-41.504,-25.391,-10.254,-40.527,0.000
1761606146.735,-54.688,-26.855,-8.301,-58.594,0.000
1761606146.739,-54.199,-25.879,-19.531,-65.918,0.000
1761606146.743,-48.340,-26.855,-21.973,-54.688,0.000
1761606146.746,-42.969,-32.227,-22.461,-43.457,0.000
1761606146.750,-39.062,-33.691,-20.020,-45.410,0.000
1761606146.754,-45.898,-28.320,-18.066,-38.086,0.000
1761606146.758,-48.828,-28.809,-22.949,-31.738,0.000
1761606146.762,-29.297,-29.297,-30.762,-25.879,0.000
1761606146.766,-19.043,-31.250,-30.273,-19.531,0.000
1761606146.770,-31.738,-33.203,-22.461,-26.367,0.000
1761606146.774,-39.062,-29.785,-19.531,-30.762,0.000
1761606146.778,-27.344,-27.832,-32.227,-24.902,0.000
1761606146.782,-7.324,-29.297,-35.645,0.000,0.000
1761606146.785,0.977,-32.227,-22.949,10.254,0.000
1761606146.789,-7.324,-36.133,-22.949,-8.789,0.000
1761606146.793,-30.273,-48.340,-23.438,-22.949,0.000
1761606146.797,-29.785,-57.617,-25.879,-22.461,0.000
1761606146.801,5.371,-51.758,-19.531,5.371,0.000
1761606146.805,5.859,-51.758,-12.695,12.207,0.000
1761606146.809,-15.625,-56.152,-12.695,-5.859,0.000
1761606146.813,-16.113,-56.152,-24.902,-10.742,0.000
1761606146.817,-5.859,-60.547,-30.273,-1.465,0.000
1761606146.821,-7.324,-62.012,-26.855,1.465,0.000
1761606146.825,-13.672,-59.570,-21.484,-4.395,0.000
1761606146.828,-11.719,-66.895,-28.320,-3.906,0.000
1761606146.832,-9.766,-64.453,-44.434,-0.977,0.000
1761606146.836,-14.160,-60.547,-47.852,-11.719,0.000
1761606146.840,-8.789,-62.988,-35.156,-10.254,0.000
1761606146.844,-6.348,-62.988,-31.738,-5.859,0.000
1761606146.848,1.953,-65.430,-36.133,2.930,0.000
1761606146.852,7.324,-62.500,-32.715,10.254,0.000
1761606146.856,-0.488,-66.406,-33.203,6.836,0.000
1761606146.860,-2.441,-71.289,-42.480,0.977,0.000
1761606146.864,3.418,-62.500,-48.828,0.977,0.000
1761606146.867,7.812,-55.664,-33.691,7.324,0.000
1761606146.871,-1.953,-63.965,-29.785,1.465,0.000
1761606146.875,-6.836,-66.895,-39.062,5.371,0.000
1761606146.879,-4.395,-68.848,-33.203,7.812,0.000
1761606146.883,11.230,-71.289,-34.180,15.625,0.000
1761606146.887,17.578,-64.941,-41.992,22.461,0.000
1761606146.891,4.883,-59.082,-41.504,2.930,0.000
1761606146.895,-3.418,-59.082,-38.574,-14.160,0.000
1761606146.899,-16.602,-60.547,-37.598,-18.066,0.000
1761606146.903,-15.625,-63.477,-47.852,-8.789,0.000
1761606146.907,-0.488,-65.430,-48.828,-5.371,0.000
1761606146.910,-28.320,-69.824,-48.828,-38.086,0.000
1761606146.914,-53.223,-62.500,-38.574,-47.363,0.000
1761606146.918,-24.902,-52.246,-27.832,-13.672,0.000
1761606146.922,-4.395,-60.547,-33.691,0.000,0.000
1761606146.926,-14.648,-60.059,-30.273,-13.184,0.000
1761606146.930,-26.855,-52.734,-27.832,-17.578,0.000
1761606146.934,-16.113,-50.293,-31.250,-6.348,0.000
1761606146.938,-14.160,-52.246,-35.645,-16.602,0.000
1761606146.942,-25.879,-56.641,-25.879,-27.832,0.000
1761606146.946,-30.273,-57.129,-19.531,-20.996,0.000
1761606146.950,-23.926,-57.617,-20.020,1.465,0.000
1761606146.953,-31.738,-60.547,-17.090,-5.371,0.000
1761606146.957,-27.832,-61.523,-11.719,-9.766,0.000
1761606146.961,-6.836,-63.965,-11.230,8.301,0.000
1761606146.965,9.277,-58.594,-21.973,15.625,0.000
1761606146.969,-10.742,-47.852,-22.461,-7.324,0.000
1761606146.973,-29.297,-52.246,-28.809,-26.855,0.000
1761606146.977,-9.277,-54.688,-32.227,-4.883,0.000
1761606146.981,-4.395,-55.664,-24.902,-1.953,0.000
1761606146.985,-10.742,-56.641,-23.926,-10.742,0.000
1761606146.989,-23.926,-58.105,-27.832,-23.438,0.000
1761606146.992,-22.461,-58.594,-16.113,-20.020,0.000
1761606146.996,-8.789,-49.316,-10.742,2.930,0.000
1761606147.000,-3.906,-51.270,-22.461,4.395,0.000
1761606147.004,-2.441,-58.105,-25.391,3.906,0.000
1761606147.008,-19.531,-52.246,-19.531,-4.883,0.000
1761606147.012,-30.273,-41.504,-19.043,-18.555,0.000
1761606147.016,-25.391,-48.340,-31.738,-9.766,0.000
1761606147.020,-20.508,-57.617,-30.273,0.977,0.000
1761606147.024,-19.043,-56.152,-22.461,1.465,0.000
1761606147.028,-17.578,-49.316,-22.949,5.371,0.000
1761606147.032,-14.160,-42.480,-23.926,-5.371,0.000
1761606147.035,-12.207,-41.992,-28.320,-16.113,0.000
1761606147.039,-8.789,-40.527,-22.949,-3.906,0.000
1761606147.043,-4.395,-34.668,-20.020,0.488,0.000
1761606147.047,2.930,-32.227,-27.832,-11.719,0.000
1761606147.051,-0.977,-38.574,-32.227,-22.949,0.000
1761606147.055,-7.324,-40.039,-29.785,-20.508,0.000
1761606147.059,-10.254,-37.109,-29.297,-17.578,0.000
1761606147.063,-15.625,-41.504,-31.250,-19.531,0.000
1761606147.067,-16.602,-45.898,-31.738,-20.508,0.000
1761606147.071,-19.043,-47.852,-32.715,-21.973,0.000
1761606147.075,-21.484,-46.875,-25.879,-27.832,0.000
1761606147.078,-30.762,-51.270,-29.297,-26.855,0.000
1761606147.082,-36.621,-49.316,-31.738,-28.320,0.000
1761606147.086,-24.414,-38.086,-21.484,-20.020,0.000
1761606147.090,-19.043,-36.621,-26.367,-17.090,0.000
1761606147.094,-16.113,-36.133,-29.297,-15.625,0.000
1761606147.098,-14.160,-34.180,-27.344,-14.160,0.000
1761606147.102,-20.020,-39.062,-26.367,-19.043,0.000
1761606147.106,-23.926,-45.410,-25.391,-20.508,0.000
1761606147.110,-23.438,-44.434,-31.250,-15.625,0.000
1761606147.114,-16.113,-46.387,-30.762,3.418,0.000
1761606147.117,-2.930,-40.527,-30.273,3.418,0.000
1761606147.121,0.000,-40.039,-32.227,-12.207,0.000
1761606147.125,-3.906,-46.387,-34.180,-19.043,0.000
1761606147.129,6.348,-38.574,-40.527,-8.789,0.000
1761606147.133,-2.441,-36.621,-42.969,-14.160,0.000
1761606147.137,2.930,-33.691,-33.691,-13.184,0.000
1761606147.141,23.926,-28.320,-28.320,11.719,0.000
1761606147.145,7.812,-31.738,-33.203,-1.465,0.000
1761606147.149,-1.465,-33.203,-39.551,-20.508,0.000
1761606147.153,-5.859,-40.039,-47.852,-22.949,0.000
1761606147.157,-19.531,-42.480,-45.898,-22.949,0.000
1761606147.160,-28.320,-36.133,-41.992,-16.602,0.000
1761606147.164,-34.180,-34.180,-42.480,-25.879,0.000
1761606147.168,-26.855,-34.668,-42.969,-27.344,0.000
1761606147.172,-9.277,-35.156,-38.086,-13.184,0.000
1761606147.176,-16.113,-33.691,-40.039,-16.113,0.000
1761606147.180,-26.367,-31.738,-43.945,-21.973,0.000
1761606147.184,-28.320,-32.227,-40.527,-24.414,0.000
1761606147.188,-32.715,-31.738,-41.504,-28.809,0.000
1761606147.192,-26.367,-25.391,-46.387,-32.227,0.000
1761606147.196,-29.785,-27.344,-52.246,-37.598,0.000
1761606147.200,-32.227,-36.133,-51.758,-37.109,0.000
1761606147.203,-20.020,-35.645,-44.434,-23.438,0.000
1761606147.207,-20.996,-33.691,-40.039,-7.812,0.000
1761606147.211,-24.414,-33.691,-40.039,-15.137,0.000
1761606147.215,-13.672,-31.738,-38.574,-9.277,0.000
1761606147.219,-4.395,-34.668,-41.016,0.000,0.000
1761606147.223,-7.324,-30.762,-43.457,-9.277,0.000
1761606147.227,-11.719,-24.902,-40.527,-13.672,0.000
1761606147.231,-18.066,-40.527,-41.504,-17.090,0.000
1761606147.235,-15.625,-44.434,-32.715,-17.578,0.000
1761606147.239,-15.137,-32.715,-42.969,-24.902,0.000
1761606147.242,-26.367,-31.250,-50.781,-31.250,0.000
1761606147.246,-27.344,-34.668,-41.504,-29.785,0.000
1761606147.250,-22.949,-38.086,-39.062,-23.438,0.000
1761606147.254,-30.273,-46.875,-34.668,-31.250,0.000
1761606147.258,-37.598,-37.598,-34.180,-40.527,0.000
1761606147.262,-24.902,-20.508,-35.645,-28.320,0.000
1761606147.266,-24.902,-28.809,-36.621,-26.855,0.000
1761606147.270,-32.227,-37.109,-33.203,-30.273,0.000
1761606147.274,-33.691,-41.992,-30.273,-28.320,0.000
1761606147.278,-38.086,-41.504,-34.180,-30.273,0.000
1761606147.282,-40.039,-31.738,-35.156,-31.250,0.000
1761606147.285,-42.480,-30.273,-30.273,-27.344,0.000
1761606147.289,-35.645,-36.621,-23.926,-27.832,0.000
1761606147.293,-10.254,-30.762,-20.996,-15.625,0.000
1761606147.297,0.000,-30.762,-33.691,-13.184,0.000
1761606147.301,2.930,-33.691,-36.133,-10.254,0.000
1761606147.305,3.906,-31.738,-26.855,-7.324,0.000
1761606147.309,7.324,-29.785,-35.156,-2.441,0.000
1761606147.313,12.695,-25.879,-45.410,-0.977,0.000
1761606147.317,20.996,-21.484,-55.176,5.859,0.000
1761606147.321,5.371,-34.180,-60.547,-6.348,0.000
1761606147.325,-1.465,-39.062,-49.805,-15.137,0.000
1761606147.328,12.695,-39.062,-41.992,10.742,0.000
1761606147.332,17.578,-44.434,-50.293,14.648,0.000
1761606147.336,11.719,-37.598,-60.059,-2.441,0.000
1761606147.340,10.742,-37.598,-58.594,-6.348,0.000
1761606147.344,6.836,-34.180,-60.059,0.488,0.000
1761606147.348,-3.418,-36.621,-64.941,-12.207,0.000
1761606147.352,5.859,-32.227,-64.941,-3.418,0.000
1761606147.356,24.902,-26.855,-64.453,22.461,0.000
1761606147.360,21.484,-26.367,-58.594,13.672,0.000
1761606147.364,-12.207,-24.414,-66.406,-13.184,0.000
1761606147.367,-4.395,-20.020,-63.477,0.488,0.000
1761606147.371,10.254,-22.461,-45.410,11.719,0.000
1761606147.375,-9.277,-33.203,-38.574,-4.395,0.000
1761606147.379,-11.230,-38.574,-41.992,-13.672,0.000
1761606147.383,0.977,-27.832,-48.340,-11.230,0.000
1761606147.387,2.930,-20.996,-49.316,-1.953,0.000
1761606147.391,-4.395,-35.645,-44.434,-6.348,0.000
1761606147.395,0.000,-22.949,-35.156,-12.207,0.000
1761606147.399,13.184,-11.719,-33.691,4.395,0.000
1761606147.403,10.254,-21.973,-40.527,14.160,0.000
1761606147.407,9.277,-20.996,-45.898,-3.906,0.000
1761606147.410,0.488,-26.367,-44.434,-19.043,0.000
1761606147.414,3.418,-27.344,-41.992,-13.672,0.000
1761606147.418,14.648,-16.602,-51.758,-10.254,0.000
1761606147.422,-4.883,-8.789,-48.828,-32.715,0.000
1761606147.426,-19.531,-14.648,-44.922,-42.480,0.000
1761606147.430,-6.348,-15.137,-48.340,-27.832,0.000
1761606147.434,-5.371,-8.789,-49.316,-14.648,0.000
1761606147.438,-15.137,-14.648,-46.387,-4.395,0.000
1761606147.442,-19.531,-20.020,-43.457,-2.441,0.000
1761606147.446,-21.973,-21.973,-43.945,-5.371,0.000
1761606147.450,-25.879,-21.484,-45.898,-15.137,0.000
1761606147.453,-39.551,-20.020,-54.199,-33.203,0.000
1761606147.457,-33.691,-17.090,-70.312,-30.762,0.000
1761606147.461,-26.367,-1.465,-72.266,-23.438,0.000
1761606147.465,-13.672,-4.395,-66.895,-19.043,0.000
1761606147.469,16.113,-13.184,-54.688,7.812,0.000
1761606147.473,10.742,-0.488,-55.664,13.184,0.000
1761606147.477,-15.625,2.441,-63.477,-20.996,0.000
1761606147.481,-11.719,-2.930,-64.941,-33.203,0.000
1761606147.485,18.555,-7.812,-67.383,-2.930,0.000
1761606147.489,22.461,-16.602,-68.359,1.953,0.000
1761606147.492,-1.953,-19.531,-73.242,-31.738,0.000
1761606147.496,2.441,-22.949,-75.684,-22.949,0.000
1761606147.500,19.531,-29.297,-75.195,2.930,0.000
1761606147.504,16.113,-21.973,-69.824,-0.977,0.000
1761606147.508,8.301,-20.996,-68.848,-6.348,0.000
1761606147.512,21.973,-21.973,-73.242,-0.977,0.000
1761606147.516,23.438,-20.996,-87.402,-3.906,0.000
1761606147.520,12.695,-30.273,-93.262,0.977,0.000
1761606147.524,5.859,-38.086,-87.402,1.953,0.000
1761606147.528,12.695,-39.062,-89.355,4.883,0.000
1761606147.532,20.020,-34.180,-99.609,7.324,0.000
1761606147.535,19.531,-34.180,-98.633,11.230,0.000
1761606147.539,21.484,-33.203,-88.379,10.254,0.000
1761606147.543,22.949,-34.180,-94.238,8.789,0.000
1761606147.547,22.461,-37.598,-95.215,20.508,0.000
1761606147.551,24.414,-40.039,-85.938,19.043,0.000
1761606147.555,11.719,-46.875,-87.402,3.418,0.000
1761606147.559,11.719,-38.574,-84.473,-7.324,0.000
1761606147.563,30.273,-29.785,-85.449,4.395,0.000
1761606147.567,39.062,-34.668,-83.496,17.578,0.000
1761606147.571,38.574,-35.156,-76.660,19.531,0.000
1761606147.575,33.203,-38.086,-73.242,20.020,0.000
1761606147.578,33.203,-34.668,-62.988,24.902,0.000
1761606147.582,33.691,-36.621,-62.500,24.414,0.000
1761606147.586,27.832,-43.457,-65.430,17.578,0.000
1761606147.590,17.090,-48.340,-66.895,12.207,0.000
1761606147.594,14.160,-51.270,-63.477,7.324,0.000
1761606147.598,9.766,-48.340,-59.570,8.301,0.000
1761606147.602,2.441,-48.340,-57.617,2.930,0.000
1761606147.606,0.488,-48.828,-56.641,1.465,0.000
1761606147.610,2.441,-48.828,-57.617,-1.465,0.000
1761606147.614,8.789,-49.316,-54.199,-4.395,0.000
1761606147.617,-1.465,-49.805,-58.594,-2.441,0.000
1761606147.621,-4.395,-46.875,-62.012,4.883,0.000
1761606147.625,6.836,-41.504,-57.129,16.113,0.000
1761606147.629,5.371,-41.016,-55.664,17.090,0.000
1761606147.633,1.465,-46.387,-55.664,13.672,0.000
1761606147.637,-2.441,-57.129,-53.711,7.324,0.000
1761606147.641,-2.930,-55.176,-49.805,9.766,0.000
1761606147.645,-7.324,-47.363,-53.711,5.371,0.000
1761606147.649,-7.324,-46.387,-59.082,7.812,0.000
1761606147.653,-4.395,-47.363,-57.617,14.160,0.000
1761606147.657,-10.254,-47.852,-54.688,0.977,0.000
1761606147.660,-12.207,-45.410,-52.246,-8.301,0.000
1761606147.664,-15.625,-46.387,-52.246,-7.324,0.000
1761606147.668,-15.625,-48.828,-51.270,-2.930,0.000
1761606147.672,-15.137,-43.945,-55.664,0.000,0.000
1761606147.676,-11.719,-37.598,-56.641,-3.906,0.000
1761606147.680,-16.113,-41.504,-54.199,-12.207,0.000
1761606147.684,-16.113,-35.645,-55.664,-9.277,0.000
1761606147.688,-7.812,-30.273,-55.176,-7.812,0.000
1761606147.692,-15.625,-40.527,-50.781,-24.414,0.000
1761606147.696,-19.043,-39.062,-50.781,-22.949,0.000
1761606147.699,-12.695,-32.227,-52.246,-10.742,0.000
1761606147.703,-27.344,-36.621,-49.316,-27.832,0.000
1761606147.707,-38.086,-38.086,-46.875,-37.598,0.000
1761606147.711,-37.109,-36.621,-43.457,-23.926,0.000
1761606147.715,-43.457,-43.457,-41.016,-20.508,0.000
1761606147.719,-41.504,-43.945,-38.574,-27.832,0.000
1761606147.723,-35.645,-41.992,-39.551,-29.785,0.000
1761606147.727,-30.273,-40.527,-41.992,-26.855,0.000
1761606147.731,-32.715,-40.039,-42.969,-32.227,0.000
1761606147.735,-30.273,-37.598,-41.016,-27.832,0.000
1761606147.739,-23.438,-36.133,-43.457,-18.066,0.000
1761606147.742,-28.809,-33.691,-46.875,-24.902,0.000
1761606147.746,-41.504,-31.738,-43.457,-32.227,0.000
1761606147.750,-37.109,-34.668,-40.527,-29.785,0.000
1761606147.754,-29.785,-35.645,-36.133,-26.855,0.000
1761606147.758,-30.762,-37.598,-40.039,-30.762,0.000
1761606147.762,-26.855,-37.598,-41.992,-31.738,0.000
1761606147.766,-19.531,-28.809,-37.109,-24.902,0.000
1761606147.770,-29.297,-33.691,-41.992,-33.691,0.000
1761606147.774,-37.109,-36.133,-43.457,-38.086,0.000
1761606147.778,-36.621,-31.738,-40.039,-25.391,0.000
1761606147.782,-34.180,-31.250,-42.480,-36.133,0.000
1761606147.785,-32.227,-36.133,-49.316,-48.828,0.000
1761606147.789,-41.016,-38.574,-45.898,-54.688,0.000
1761606147.793,-40.527,-31.738,-41.016,-53.223,0.000
1761606147.797,-40.039,-31.250,-41.504,-48.340,0.000
1761606147.801,-35.645,-32.715,-37.598,-48.340,0.000
1761606147.805,-40.039,-40.039,-36.133,-49.316,0.000
1761606147.809,-48.340,-44.922,-39.551,-50.781,0.000
1761606147.813,-45.410,-42.480,-43.457,-55.664,0.000
1761606147.817,-38.574,-42.480,-42.480,-50.781,0.000
1761606147.821,-39.062,-42.969,-40.527,-40.039,0.000
1761606147.824,-47.852,-39.551,-39.062,-38.574,0.000
1761606147.828,-36.133,-38.086,-31.250,-34.668,0.000
1761606147.832,-25.391,-44.434,-37.109,-27.344,0.000
1761606147.836,-23.438,-37.598,-46.387,-23.926,0.000
1761606147.840,-36.133,-22.461,-44.922,-41.992,0.000
1761606147.844,-44.434,-30.273,-51.758,-49.805,0.000
1761606147.848,-20.996,-40.039,-61.035,-30.273,0.000
1761606147.852,-0.977,-36.133,-62.500,-11.230,0.000
1761606147.856,3.418,-36.621,-61.035,-0.488,0.000
1761606147.860,0.977,-38.574,-56.641,-9.277,0.000
1761606147.864,-6.836,-41.016,-49.316,-5.859,0.000
1761606147.867,-7.324,-37.598,-42.480,7.324,0.000
1761606147.871,-8.789,-39.062,-40.527,-3.418,0.000
1761606147.875,-24.414,-44.922,-44.922,-18.066,0.000
1761606147.879,-23.438,-41.016,-40.527,-18.066,0.000
1761606147.883,-7.324,-35.156,-34.180,1.465,0.000
1761606147.887,-6.348,-31.738,-41.016,-4.395,0.000
1761606147.891,-10.742,-38.086,-48.340,-11.230,0.000
1761606147.895,-17.090,-41.016,-48.828,-8.789,0.000
1761606147.899,-18.555,-39.551,-49.805,-23.438,0.000
1761606147.903,-17.090,-36.621,-51.758,-24.902,0.000
1761606147.907,-23.438,-34.180,-52.734,-27.344,0.000
1761606147.910,-20.020,-33.203,-49.316,-25.879,0.000
1761606147.914,-15.137,-29.297,-42.480,-26.855,0.000
1761606147.918,-6.348,-29.297,-41.016,-21.484,0.000
1761606147.922,-8.789,-30.273,-40.039,-21.484,0.000
1761606147.926,-16.113,-27.344,-40.039,-28.320,0.000
1761606147.930,-13.184,-26.855,-42.480,-24.902,0.000
1761606147.934,-13.672,-27.832,-42.969,-30.762,0.000
1761606147.938,-15.625,-31.738,-42.480,-33.203,0.000
1761606147.942,-26.855,-32.715,-43.457,-31.250,0.000
1761606147.946,-30.762,-36.133,-41.016,-26.855,0.000
1761606147.949,-22.949,-32.715,-37.598,-23.926,0.000
1761606147.953,-23.438,-32.715,-38.086,-17.090,0.000
1761606147.957,-26.367,-39.062,-38.574,-13.672,0.000
1761606147.961,-26.855,-30.762,-40.039,-26.367,0.000
1761606147.965,-17.578,-24.414,-39.062,-19.531,0.000
1761606147.969,-15.137,-27.832,-34.180,-10.742,0.000
1761606147.973,-18.066,-27.344,-32.715,-11.719,0.000
1761606147.977,-16.113,-24.902,-34.668,-17.090,0.000
1761606147.981,-12.207,-31.738,-35.156,-25.879,0.000
1761606147.985,-18.066,-38.086,-36.621,-28.320,0.000
1761606147.989,-24.902,-36.133,-38.574,-27.344,0.000
1761606147.992,-17.578,-35.156,-33.691,-20.996,0.000
1761606147.996,-13.672,-34.180,-32.715,-16.602,0.000
1761606148.000,-18.555,-31.738,-34.668,-15.137,0.000
1761606148.004,-22.461,-34.180,-34.668,-26.367,0.000
1761606148.008,-24.902,-31.738,-36.621,-29.297,0.000
1761606148.012,-25.879,-28.809,-34.180,-16.113,0.000
1761606148.016,-20.020,-29.785,-34.668,-20.996,0.000
1761606148.020,-17.578,-27.344,-37.598,-21.484,0.000
1761606148.024,-23.926,-31.250,-33.203,-17.090,0.000
1761606148.028,-25.879,-35.156,-29.785,-22.949,0.000
1761606148.032,-20.020,-35.645,-28.320,-25.879,0.000
1761606148.035,-13.672,-36.621,-19.043,-25.879,0.000
1761606148.039,-27.832,-38.574,-20.508,-36.621,0.000
1761606148.043,-37.598,-39.551,-32.227,-37.598,0.000
1761606148.047,-26.855,-39.062,-30.762,-25.879,0.000
1761606148.051,-20.508,-34.668,-25.391,-23.926,0.000
1761606148.055,-21.973,-35.645,-26.367,-26.855,0.000
1761606148.059,-18.555,-41.992,-25.879,-24.414,0.000
1761606148.063,-20.020,-38.086,-33.203,-25.391,0.000
1761606148.067,-36.621,-36.133,-39.551,-43.945,0.000
1761606148.071,-41.504,-39.062,-32.227,-44.922,0.000
1761606148.074,-41.992,-32.715,-30.273,-36.133,0.000
1761606148.078,-52.246,-31.250,-29.297,-46.875,0.000
1761606148.082,-50.293,-31.250,-29.297,-53.223,0.000
1761606148.086,-45.410,-25.391,-30.273,-61.523,0.000
1761606148.090,-52.734,-26.855,-24.902,-62.988,0.000
1761606148.094,-56.152,-26.855,-19.531,-55.176,0.000
1761606148.098,-42.480,-27.832,-23.926,-43.945,0.000
1761606148.102,-34.180,-35.645,-31.738,-37.598,0.000
1761606148.106,-35.156,-39.062,-29.785,-36.621,0.000
1761606148.110,-39.551,-34.668,-28.809,-26.855,0.000
1761606148.114,-28.320,-29.785,-29.297,-19.531,0.000
1761606148.117,-20.508,-26.367,-24.414,-22.949,0.000
1761606148.121,-24.902,-24.414,-26.367,-29.297,0.000
1761606148.125,-26.367,-27.344,-28.809,-36.133,0.000
1761606148.129,-29.785,-28.809,-28.320,-42.969,0.000
1761606148.133,-27.344,-29.785,-28.320,-38.086,0.000
1761606148.137,-30.273,-31.738,-27.344,-31.738,0.000
1761606148.141,-35.156,-28.320,-24.902,-33.203,0.000
1761606148.145,-32.715,-27.344,-24.902,-33.691,0.000
1761606148.149,-28.809,-28.809,-31.250,-32.227,0.000
1761606148.153,-32.227,-32.715,-34.668,-33.691,0.000
1761606148.157,-36.133,-31.250,-31.250,-39.062,0.000
1761606148.160,-38.086,-22.949,-28.809,-34.180,0.000
1761606148.164,-29.785,-21.973,-33.203,-18.555,0.000
1761606148.168,-17.578,-23.926,-30.273,-16.602,0.000
1761606148.172,-23.438,-20.020,-24.902,-28.809,0.000
1761606148.176,-33.691,-19.531,-27.832,-34.180,0.000
1761606148.180,-33.691,-18.066,-28.320,-31.250,0.000
1761606148.184,-30.762,-18.066,-25.391,-23.438,0.000
1761606148.188,-28.320,-25.391,-23.438,-35.156,0.000
1761606148.192,-29.297,-28.809,-25.391,-42.480,0.000
1761606148.196,-32.227,-31.738,-31.250,-30.762,0.000
1761606148.199,-26.855,-30.273,-33.691,-25.879,0.000
1761606148.203,-26.855,-29.297,-30.762,-33.691,0.000
1761606148.207,-35.156,-31.250,-30.762,-47.852,0.000
1761606148.211,-41.016,-32.715,-31.250,-43.945,0.000
1761606148.215,-40.527,-33.203,-30.273,-31.250,0.000
1761606148.219,-34.180,-34.180,-22.949,-30.762,0.000
1761606148.223,-30.273,-31.250,-21.973,-37.598,0.000
1761606148.227,-31.250,-30.762,-23.438,-39.551,0.000
1761606148.231,-34.668,-35.156,-24.902,-47.852,0.000
1761606148.235,-39.062,-34.668,-24.414,-50.293,0.000
1761606148.239,-41.016,-36.133,-20.508,-33.203,0.000
1761606148.242,-47.363,-34.180,-19.043,-30.762,0.000
1761606148.246,-40.039,-27.344,-18.555,-36.621,0.000
1761606148.250,-27.344,-21.484,-19.043,-32.715,0.000
1761606148.254,-35.156,-21.973,-19.531,-34.180,0.000
1761606148.258,-41.992,-26.855,-20.508,-35.156,0.000
1761606148.262,-46.387,-30.762,-20.508,-40.527,0.000
1761606148.266,-45.898,-31.250,-20.996,-44.434,0.000
1761606148.270,-41.504,-31.250,-19.531,-37.598,0.000
1761606148.274,-39.551,-33.691,-20.508,-29.297,0.000
1761606148.278,-32.227,-27.344,-19.531,-20.508,0.000
1761606148.281,-29.297,-27.344,-21.484,-16.602,0.000
1761606148.285,-34.668,-34.180,-20.996,-25.879,0.000
1761606148.289,-41.504,-34.668,-19.531,-29.785,0.000
1761606148.293,-47.363,-31.738,-23.438,-34.668,0.000
1761606148.297,-50.781,-34.180,-26.855,-37.598,0.000
1761606148.301,-40.527,-25.879,-24.902,-24.902,0.000
1761606148.305,-33.691,-22.461,-25.391,-30.273,0.000
1761606148.309,-33.203,-24.414,-28.320,-36.133,0.000
1761606148.313,-29.297,-25.879,-29.297,-30.273,0.000
1761606148.317,-35.156,-30.762,-24.414,-30.273,0.000
1761606148.321,-37.598,-30.762,-20.996,-31.738,0.000
1761606148.324,-36.133,-30.273,-28.320,-35.156,0.000
1761606148.328,-45.410,-34.668,-35.156,-28.320,0.000
1761606148.332,-47.852,-35.645,-33.691,-22.461,0.000
1761606148.336,-44.922,-31.738,-31.738,-32.227,0.000
1761606148.340,-34.668,-31.738,-38.086,-38.574,0.000
1761606148.344,-37.598,-33.203,-35.645,-38.574,0.000
1761606148.348,-58.594,-35.645,-32.715,-36.621,0.000
1761606148.352,-51.758,-39.551,-36.133,-34.180,0.000
1761606148.356,-48.340,-40.039,-31.738,-35.156,0.000
1761606148.360,-59.082,-39.551,-37.109,-35.156,0.000
1761606148.364,-53.711,-38.086,-40.527,-34.668,0.000
1761606148.367,-50.293,-35.645,-37.598,-32.715,0.000
1761606148.371,-60.547,-41.992,-45.410,-43.945,0.000
1761606148.375,-70.801,-46.387,-47.852,-62.988,0.000
1761606148.379,-50.293,-34.180,-35.156,-37.598,0.000
1761606148.383,-28.320,-26.855,-35.645,-12.695,0.000
1761606148.387,-28.320,-30.273,-39.062,-24.902,0.000
1761606148.391,-34.668,-33.691,-33.691,-40.527,0.000
1761606148.395,-36.133,-27.344,-33.203,-36.133,0.000
1761606148.399,-37.109,-28.809,-32.227,-32.227,0.000
1761606148.403,-37.598,-40.039,-32.715,-35.645,0.000
1761606148.406,-38.574,-42.480,-36.621,-44.922,0.000
1761606148.410,-37.109,-37.598,-31.738,-45.898,0.000
1761606148.414,-31.738,-34.668,-31.250,-41.992,0.000
1761606148.418,-32.715,-35.156,-41.992,-39.062,0.000
1761606148.422,-37.109,-30.762,-43.457,-34.668,0.000
1761606148.426,-39.551,-28.320,-34.668,-44.922,0.000
1761606148.430,-38.574,-28.320,-31.250,-46.387,0.000
1761606148.434,-42.480,-30.762,-28.809,-37.109,0.000
1761606148.438,-36.621,-34.668,-25.879,-30.273,0.000
1761606148.442,-34.668,-35.156,-27.344,-30.762,0.000
1761606148.446,-42.480,-35.156,-28.809,-36.133,0.000
1761606148.449,-38.574,-35.645,-32.715,-40.039,0.000
1761606148.453,-32.227,-33.203,-35.156,-40.527,0.000
1761606148.457,-40.039,-27.832,-35.156,-39.551,0.000
1761606148.461,-44.922,-23.926,-36.133,-39.551,0.000
1761606148.465,-31.738,-28.809,-30.762,-30.762,0.000
1761606148.469,-25.879,-36.621,-24.902,-20.508,0.000
1761606148.473,-34.668,-29.297,-29.297,-27.344,0.000
1761606148.477,-43.457,-23.926,-36.133,-46.387,0.000
1761606148.481,-52.246,-29.297,-36.621,-54.688,0.000
1761606148.485,-51.758,-28.809,-38.574,-62.988,0.000
1761606148.489,-42.969,-25.879,-49.805,-60.059,0.000
1761606148.492,-40.527,-18.066,-58.105,-52.246,0.000
1761606148.496,-41.504,-8.789,-55.664,-57.129,0.000
1761606148.500,-44.434,-9.766,-57.617,-64.453,0.000
1761606148.504,-49.316,-14.160,-52.246,-57.617,0.000
1761606148.508,-41.992,-17.578,-42.969,-49.805,0.000
1761606148.512,-37.109,-22.461,-45.898,-56.152,0.000
1761606148.516,-39.062,-24.902,-47.852,-53.711,0.000
1761606148.520,-33.203,-20.020,-43.945,-43.945,0.000
1761606148.524,-27.832,-14.648,-41.016,-32.715,0.000
1761606148.528,-38.574,-15.137,-40.039,-36.621,0.000
1761606148.531,-43.945,-17.090,-40.039,-41.992,0.000
1761606148.535,-37.598,-13.672,-39.062,-39.551,0.000
1761606148.539,-46.387,-11.719,-41.016,-47.852,0.000
1761606148.543,-48.340,-14.648,-39.551,-59.570,0.000
1761606148.547,-38.574,-11.719,-35.156,-53.223,0.000
1761606148.551,-34.180,-13.184,-32.715,-39.062,0.000
1761606148.555,-32.715,-16.113,-34.180,-39.551,0.000
1761606148.559,-39.062,-16.113,-36.621,-43.945,0.000
1761606148.563,-37.598,-20.020,-34.668,-46.387,0.000
1761606148.567,-42.480,-23.438,-32.715,-49.316,0.000
1761606148.571,-54.688,-25.391,-37.598,-48.828,0.000
1761606148.574,-48.340,-20.996,-38.086,-42.480,0.000
1761606148.578,-43.457,-20.508,-34.180,-39.551,0.000
1761606148.582,-40.039,-24.902,-35.156,-43.945,0.000
1761606148.586,-49.316,-32.715,-38.086,-48.828,0.000
1761606148.590,-55.664,-41.016,-34.668,-60.547,0.000
1761606148.594,-61.523,-43.945,-35.156,-61.035,0.000
1761606148.598,-56.152,-35.645,-36.133,-42.969,0.000
1761606148.602,-41.992,-27.344,-36.133,-36.133,0.000
1761606148.606,-36.133,-27.832,-34.668,-42.969,0.000
1761606148.610,-36.133,-28.809,-35.156,-48.828,0.000
1761606148.614,-35.156,-33.203,-40.039,-46.387,0.000
1761606148.617,-35.156,-32.227,-39.062,-41.016,0.000
1761606148.621,-49.805,-35.645,-39.551,-50.293,0.000
1761606148.625,-42.969,-35.645,-41.504,-51.758,0.000
1761606148.629,-28.320,-26.855,-31.738,-38.574,0.000
1761606148.633,-32.227,-23.438,-26.367,-35.156,0.000
1761606148.637,-33.691,-21.973,-31.250,-38.574,0.000
1761606148.641,-46.875,-27.344,-30.762,-39.062,0.000
1761606148.645,-39.551,-32.227,-30.273,-40.527,0.000
1761606148.649,-38.086,-32.227,-33.691,-41.992,0.000
1761606148.653,-41.504,-27.832,-34.668,-41.016,0.000
1761606148.656,-29.297,-22.461,-29.785,-33.691,0.000
1761606148.660,-28.809,-23.438,-20.996,-23.438,0.000
1761606148.664,-27.832,-25.391,-17.090,-28.320,0.000
1761606148.668,-32.227,-25.391,-21.484,-40.527,0.000
1761606148.672,-45.410,-29.297,-29.785,-48.828,0.000
1761606148.676,-51.270,-36.621,-31.738,-55.176,0.000
1761606148.680,-50.293,-35.645,-25.879,-54.688,0.000
1761606148.684,-36.133,-24.902,-26.855,-44.434,0.000
1761606148.688,-27.344,-18.555,-36.133,-43.945,0.000
1761606148.692,-36.133,-19.531,-38.086,-43.457,0.000
1761606148.696,-32.227,-23.438,-34.668,-37.598,0.000
1761606148.699,-34.180,-22.949,-32.227,-44.922,0.000
1761606148.703,-41.504,-20.508,-25.391,-44.434,0.000
1761606148.707,-39.062,-18.555,-19.043,-34.668,0.000
1761606148.711,-42.969,-21.484,-25.879,-39.551,0.000
1761606148.715,-41.992,-30.273,-36.621,-39.551,0.000
1761606148.719,-50.293,-15.625,-24.414,-45.410,0.000
1761606148.723,-56.641,-9.277,-15.625,-57.129,0.000
1761606148.727,-44.922,-20.020,-25.391,-53.223,0.000
1761606148.731,-42.969,-18.555,-32.715,-54.688,0.000
1761606148.735,-50.781,-15.625,-22.949,-59.082,0.000
1761606148.738,-55.176,-12.695,-8.301,-66.895,0.000
1761606148.742,-64.941,-17.090,-21.484,-80.566,0.000
1761606148.746,-67.871,-20.508,-20.508,-87.402,0.000
1761606148.750,-63.477,-18.555,-3.418,-89.844,0.000
1761606148.754,-63.965,-17.578,-5.371,-78.613,0.000
1761606148.758,-77.637,-4.395,6.836,-83.496,0.000
1761606148.762,-107.422,0.000,27.344,-104.004,0.000
1761606148.766,-130.859,-12.207,22.949,-117.188,0.000
1761606148.770,-143.066,-2.441,25.391,-139.648,0.000
1761606148.774,-158.691,7.324,38.574,-162.598,0.000
1761606148.778,-187.988,9.277,61.523,-185.547,0.000
1761606148.781,-206.055,10.254,70.801,-200.195,0.000
1761606148.785,-206.543,11.719,63.965,-198.242,0.000
1761606148.789,-205.566,9.277,73.242,-200.684,0.000
1761606148.793,-219.727,6.836,86.914,-211.914,0.000
1761606148.797,-239.746,7.324,85.449,-220.703,0.000
1761606148.801,-237.793,6.836,91.797,-226.074,0.000
1761606148.805,-234.863,8.301,103.516,-225.098,0.000
1761606148.809,-236.816,3.906,100.098,-227.051,0.000
1761606148.813,-237.305,-4.883,104.492,-223.633,0.000
1761606148.817,-242.676,-9.277,109.863,-217.773,0.000
1761606148.821,-243.652,-10.254,97.656,-217.285,0.000
1761606148.824,-234.375,-8.789,96.191,-207.031,0.000
1761606148.828,-240.234,-6.348,104.492,-206.543,0.000
1761606148.832,-246.582,-14.160,104.492,-212.402,0.000
1761606148.836,-227.051,-19.531,98.633,-195.312,0.000
1761606148.840,-210.449,-22.461,95.703,-183.594,0.000
1761606148.844,-211.426,-25.391,99.121,-186.523,0.000
1761606148.848,-214.844,-23.438,90.820,-184.570,0.000
1761606148.852,-206.055,-27.344,90.820,-170.898,0.000
1761606148.856,-197.266,-25.879,94.238,-157.227,0.000
1761606148.860,-186.035,-17.090,81.055,-150.879,0.000
1761606148.863,-176.758,-21.484,74.219,-153.809,0.000
1761606148.867,-183.594,-26.855,80.078,-156.738,0.000
1761606148.871,-182.129,-22.949,75.195,-156.738,0.000
1761606148.875,-178.711,-22.461,69.336,-155.273,0.000
1761606148.879,-176.270,-25.879,71.777,-151.855,0.000
1761606148.883,-165.527,-23.926,74.219,-145.996,0.000
1761606148.887,-149.414,-19.531,73.242,-131.836,0.000
1761606148.891,-142.578,-22.949,62.988,-131.348,0.000
1761606148.895,-151.855,-29.785,60.059,-128.906,0.000
1761606148.899,-148.438,-36.621,61.035,-124.512,0.000
1761606148.903,-133.301,-37.598,54.199,-121.094,0.000
1761606148.906,-125.977,-32.227,46.875,-103.027,0.000
1761606148.910,-132.812,-32.715,44.922,-113.770,0.000
1761606148.914,-137.695,-39.062,42.969,-125.977,0.000
1761606148.918,-133.301,-43.945,40.527,-114.746,0.000
1761606148.922,-128.906,-46.387,40.527,-109.375,0.000
1761606148.926,-128.418,-48.828,39.062,-111.816,0.000
1761606148.930,-121.582,-44.434,43.457,-105.957,0.000
1761606148.934,-120.605,-42.969,44.922,-102.051,0.000
1761606148.938,-115.723,-48.828,37.598,-93.750,0.000
1761606148.942,-99.609,-43.457,33.203,-80.078,0.000
1761606148.946,-96.191,-32.227,29.785,-76.172,0.000
1761606148.949,-100.098,-32.715,31.738,-74.219,0.000
1761606148.953,-96.191,-28.809,33.203,-74.707,0.000
1761606148.957,-101.074,-24.414,21.973,-86.426,0.000
1761606148.961,-86.426,-28.320,15.137,-80.078,0.000
1761606148.965,-70.312,-26.367,11.230,-75.684,0.000
1761606148.969,-80.566,-26.855,10.254,-78.613,0.000
1761606148.973,-85.449,-32.227,12.207,-77.148,0.000
1761606148.977,-85.938,-31.738,13.184,-75.195,0.000
1761606148.981,-83.008,-28.809,10.742,-68.848,0.000
1761606148.985,-83.496,-34.180,5.859,-77.148,0.000
1761606148.988,-74.707,-37.598,3.906,-76.172,0.000
1761606148.992,-61.035,-36.621,0.488,-64.941,0.000
1761606148.996,-65.430,-40.527,5.859,-66.406,0.000
1761606149.000,-73.242,-41.016,9.277,-62.500,0.000
1761606149.004,-60.059,-28.320,2.441,-50.293,0.000
1761606149.008,-59.570,-29.785,-0.488,-58.105,0.000
1761606149.012,-76.172,-33.203,4.395,-63.965,0.000
1761606149.016,-69.824,-30.273,7.324,-51.758,0.000
1761606149.020,-58.105,-30.762,0.000,-47.852,0.000
1761606149.024,-54.688,-18.555,-7.324,-49.805,0.000
1761606149.028,-47.363,-18.066,-10.254,-49.805,0.000
1761606149.031,-45.898,-25.391,-9.277,-46.387,0.000
1761606149.035,-62.012,-26.367,3.418,-52.246,0.000
1761606149.039,-66.406,-28.320,1.953,-58.594,0.000
1761606149.043,-46.875,-31.738,-10.254,-47.852,0.000
1761606149.047,-38.574,-31.738,-8.301,-41.504,0.000
1761606149.051,-50.293,-34.180,-8.301,-49.805,0.000
1761606149.055,-54.199,-38.574,-10.254,-52.246,0.000
1761606149.059,-52.734,-34.180,-1.953,-44.434,0.000
1761606149.063,-64.941,-33.691,-2.441,-52.734,0.000
1761606149.067,-61.035,-41.016,-6.836,-54.688,0.000
1761606149.071,-41.504,-46.387,-2.441,-46.387,0.000
1761606149.074,-27.344,-36.621,-12.207,-42.480,0.000
1761606149.078,-42.480,-28.809,-20.020,-47.852,0.000
1761606149.082,-55.664,-25.391,-14.648,-54.688,0.000
1761606149.086,-46.387,-36.621,-9.766,-52.734,0.000
1761606149.090,-50.293,-41.504,0.488,-50.293,0.000
1761606149.094,-51.270,-36.621,3.418,-42.969,0.000
1761606149.098,-27.832,-41.016,-4.395,-30.273,0.000
1761606149.102,-32.715,-23.926,-25.391,-42.969,0.000
1761606149.106,-52.734,-18.555,-26.855,-59.082,0.000
1761606149.110,-57.129,-28.320,-21.484,-62.012,0.000
1761606149.113,-52.246,-29.785,-28.809,-59.082,0.000
1761606149.117,-43.945,-33.203,-24.414,-48.340,0.000
1761606149.121,-47.852,-31.738,-13.184,-53.223,0.000
1761606149.125,-53.223,-30.273,-17.578,-57.617,0.000
1761606149.129,-45.410,-31.250,-21.484,-57.129,0.000
1761606149.133,-44.922,-28.809,-14.648,-48.828,0.000
1761606149.137,-36.621,-31.738,-18.066,-30.273,0.000
1761606149.141,-33.691,-30.273,-20.508,-34.180,0.000
1761606149.145,-50.293,-28.809,-16.602,-50.781,0.000
1761606149.149,-61.523,-34.668,-15.137,-53.711,0.000
1761606149.153,-60.059,-40.527,-16.113,-48.828,0.000
1761606149.156,-46.875,-43.945,-22.949,-34.668,0.000
1761606149.160,-49.316,-43.457,-25.879,-53.711,0.000
1761606149.164,-57.617,-41.016,-25.879,-68.848,0.000
1761606149.168,-44.922,-39.551,-24.902,-48.340,0.000
1761606149.172,-42.480,-30.273,-21.973,-43.945,0.000
1761606149.176,-43.457,-22.949,-26.855,-41.992,0.000
1761606149.180,-42.480,-24.902,-31.250,-47.363,0.000
1761606149.184,-46.387,-27.344,-27.344,-36.621,0.000
1761606149.188,-42.480,-30.762,-24.902,-29.785,0.000
1761606149.192,-45.410,-27.832,-23.438,-41.016,0.000
1761606149.196,-51.270,-28.320,-29.785,-50.293,0.000
1761606149.199,-51.758,-32.715,-26.367,-50.293,0.000
1761606149.203,-49.316,-30.762,-19.043,-46.387,0.000
1761606149.207,-43.945,-30.762,-20.996,-44.434,0.000
1761606149.211,-38.574,-34.180,-25.391,-44.434,0.000
1761606149.215,-50.293,-39.551,-31.738,-55.176,0.000
1761606149.219,-62.988,-39.551,-23.926,-67.871,0.000
1761606149.223,-66.406,-32.715,-21.484,-72.754,0.000
1761606149.227,-42.480,-35.156,-26.855,-52.734,0.000
1761606149.231,-27.832,-41.504,-19.043,-36.621,0.000
1761606149.235,-46.875,-37.109,-15.137,-54.199,0.000
1761606149.238,-56.641,-35.645,-14.160,-67.383,0.000
1761606149.242,-48.340,-41.016,-14.648,-42.480,0.000
1761606149.246,-24.414,-40.039,-16.602,-19.043,0.000
1761606149.250,-28.809,-35.645,-20.996,-36.621,0.000
1761606149.254,-50.781,-34.180,-18.555,-53.711,0.000
1761606149.258,-47.363,-34.668,-19.531,-45.898,0.000
1761606149.262,-37.598,-30.762,-24.902,-43.457,0.000
1761606149.266,-35.645,-32.227,-21.484,-47.852,0.000
1761606149.270,-38.086,-34.180,-22.949,-47.363,0.000
1761606149.274,-40.039,-36.621,-23.926,-41.992,0.000
1761606149.278,-29.785,-46.875,-18.555,-28.809,0.000
1761606149.281,-19.531,-39.551,-26.855,-28.320,0.000
1761606149.285,-30.762,-32.227,-29.785,-33.691,0.000
1761606149.289,-36.133,-30.273,-22.461,-35.645,0.000
1761606149.293,-32.715,-33.691,-20.996,-36.621,0.000
1761606149.297,-33.691,-34.180,-25.391,-39.062,0.000
1761606149.301,-10.254,-33.203,-35.156,-24.414,0.000
1761606149.305,4.883,-32.227,-41.992,-16.113,0.000
1761606149.309,-8.789,-30.273,-36.621,-25.391,0.000
1761606149.313,-25.879,-38.086,-26.367,-37.598,0.000
1761606149.317,-30.273,-44.922,-20.508,-42.480,0.000
1761606149.321,-25.391,-47.852,-23.926,-41.992,0.000
1761606149.324,-30.273,-48.340,-24.414,-36.621,0.000
1761606149.328,-37.109,-51.758,-33.691,-41.992,0.000
1761606149.332,-31.250,-62.012,-38.574,-33.203,0.000
1761606149.336,-17.090,-59.082,-36.133,-23.438,0.000
1761606149.340,-5.371,-40.527,-38.574,-23.438,0.000
1761606149.344,-15.137,-42.969,-37.598,-25.879,0.000
1761606149.348,-28.320,-59.082,-35.645,-29.297,0.000
1761606149.352,-32.715,-64.941,-39.551,-30.273,0.000
1761606149.356,-41.016,-67.871,-38.086,-35.156,0.000
1761606149.360,-35.156,-64.453,-32.715,-31.738,0.000
1761606149.363,-22.949,-56.152,-31.738,-16.113,0.000
1761606149.367,-22.949,-54.688,-37.109,-9.277,0.000
1761606149.371,-31.250,-49.805,-39.551,-25.879,0.000
1761606149.375,-31.738,-45.410,-38.086,-33.691,0.000
1761606149.379,-30.273,-43.457,-39.062,-30.273,0.000
1761606149.383,-32.227,-41.504,-39.551,-29.297,0.000
1761606149.387,-35.156,-41.992,-39.062,-32.715,0.000
1761606149.391,-41.504,-42.969,-45.410,-37.109,0.000
1761606149.395,-36.621,-42.480,-41.504,-36.621,0.000
1761606149.399,-29.297,-46.387,-30.762,-30.273,0.000
1761606149.403,-29.785,-51.270,-31.738,-24.414,0.000
1761606149.406,-33.691,-48.340,-32.227,-28.320,0.000
1761606149.410,-36.133,-44.922,-32.715,-24.902,0.000
1761606149.414,-31.738,-41.504,-38.086,-22.949,0.000
1761606149.418,-20.508,-39.551,-33.691,-25.879,0.000
1761606149.422,-18.555,-41.992,-31.250,-21.973,0.000
1761606149.426,-26.367,-42.480,-25.391,-18.555,0.000
1761606149.430,-33.691,-40.527,-24.414,-33.203,0.000
1761606149.434,-26.855,-47.852,-29.297,-27.832,0.000
1761606149.438,-20.996,-53.223,-23.926,-8.789,0.000
1761606149.442,-42.969,-52.734,-20.508,-30.762,0.000
1761606149.446,-49.316,-53.223,-22.949,-39.062,0.000
1761606149.449,-23.438,-50.781,-29.297,-8.301,0.000
1761606149.453,-18.066,-51.270,-27.344,-7.812,0.000
1761606149.457,-38.086,-46.387,-21.973,-32.227,0.000
1761606149.461,-39.551,-48.340,-24.414,-33.691,0.000
1761606149.465,-22.461,-52.246,-27.344,-26.367,0.000
1761606149.469,-22.461,-50.293,-33.203,-20.508,0.000
1761606149.473,-29.785,-53.223,-35.156,-20.020,0.000
1761606149.477,-34.180,-54.199,-31.250,-23.926,0.000
1761606149.481,-27.344,-53.223,-24.902,-13.184,0.000
1761606149.485,-18.555,-46.875,-30.762,-6.836,0.000
1761606149.488,-14.648,-41.504,-39.551,-9.766,0.000
1761606149.492,-17.578,-41.992,-31.738,-13.184,0.000
1761606149.496,-22.461,-42.969,-33.203,-20.508,0.000
1761606149.500,-17.090,-48.828,-42.480,-18.066,0.000
1761606149.504,-18.066,-45.410,-36.133,-20.996,0.000
1761606149.508,-12.695,-36.133,-28.809,-20.508,0.000
1761606149.512,-15.625,-39.062,-28.809,-18.555,0.000
1761606149.516,-22.949,-50.781,-28.809,-22.949,0.000
1761606149.520,-9.766,-48.828,-30.273,-12.695,0.000
1761606149.524,-5.859,-39.062,-28.320,-7.324,0.000
1761606149.528,-15.137,-37.598,-28.320,-12.695,0.000
1761606149.531,-11.719,-38.574,-28.809,-9.766,0.000
1761606149.535,-4.883,-42.969,-26.855,-8.301,0.000
1761606149.539,-9.766,-48.828,-23.438,-8.789,0.000
1761606149.543,-12.695,-53.711,-23.926,-10.254,0.000
1761606149.547,-16.113,-51.758,-25.391,-12.695,0.000
1761606149.551,-23.926,-44.922,-28.809,-12.695,0.000
1761606149.555,-21.973,-44.922,-29.297,-11.230,0.000
1761606149.559,-15.137,-50.293,-24.414,-14.648,0.000
1761606149.563,-16.113,-47.852,-25.391,-22.949,0.000
1761606149.567,-16.113,-52.734,-26.367,-18.555,0.000
1761606149.571,-20.996,-52.246,-36.621,-15.625,0.000
1761606149.574,-17.090,-53.711,-41.016,-12.207,0.000
1761606149.578,-8.789,-59.570,-36.133,-10.742,0.000
1761606149.582,-13.672,-54.688,-33.203,-9.277,0.000
1761606149.586,-12.207,-45.898,-32.227,-14.160,0.000
1761606149.590,-11.230,-35.645,-33.203,-22.461,0.000
1761606149.594,-15.137,-36.621,-38.574,-28.320,0.000
1761606149.598,-12.695,-43.457,-35.645,-29.785,0.000
1761606149.602,-7.324,-37.109,-28.809,-19.531,0.000
1761606149.606,-9.277,-33.203,-34.668,-17.090,0.000
1761606149.610,-19.043,-34.180,-36.621,-18.066,0.000
1761606149.613,-14.648,-27.832,-32.227,-18.555,0.000
1761606149.617,-11.230,-26.367,-32.715,-20.020,0.000
1761606149.621,-15.137,-29.297,-37.598,-23.438,0.000
1761606149.625,-23.926,-40.039,-35.645,-28.809,0.000
1761606149.629,-27.832,-46.875,-38.086,-32.715,0.000
1761606149.633,-25.391,-38.086,-39.551,-26.367,0.000
1761606149.637,-24.414,-37.598,-35.156,-15.137,0.000
1761606149.641,-18.555,-36.133,-36.133,-12.207,0.000
1761606149.645,-18.555,-33.203,-39.062,-16.602,0.000
1761606149.649,-16.113,-27.832,-40.527,-15.137,0.000
1761606149.653,-17.090,-28.320,-41.504,-17.090,0.000
1761606149.656,-25.391,-34.180,-44.922,-29.785,0.000
1761606149.660,-19.531,-33.203,-44.922,-29.785,0.000
1761606149.664,-8.789,-33.203,-44.922,-24.414,0.000
1761606149.668,-14.648,-35.156,-42.480,-17.090,0.000
1761606149.672,-23.438,-30.762,-45.410,-25.391,0.000
1761606149.676,-30.273,-31.738,-51.758,-40.039,0.000
1761606149.680,-26.367,-35.645,-45.898,-30.762,0.000
1761606149.684,-10.742,-31.250,-39.062,-20.508,0.000
1761606149.688,-8.301,-34.180,-40.039,-23.438,0.000
1761606149.692,-14.160,-35.645,-42.480,-28.320,0.000
1761606149.696,-11.230,-32.227,-43.945,-28.809,0.000
1761606149.699,-7.812,-29.785,-42.480,-27.344,0.000
1761606149.703,-16.113,-29.785,-35.645,-31.738,0.000
1761606149.707,-22.461,-32.227,-33.691,-36.621,0.000
1761606149.711,-17.578,-33.691,-39.551,-24.902,0.000
1761606149.715,-12.207,-35.645,-44.434,-20.996,0.000
1761606149.719,-10.254,-36.621,-45.410,-23.926,0.000
1761606149.723,-14.648,-36.621,-42.969,-22.461,0.000
1761606149.727,-9.766,-34.180,-42.969,-15.625,0.000
1761606149.731,-8.301,-30.762,-51.758,-21.973,0.000
1761606149.735,-11.230,-31.250,-56.152,-30.273,0.000
1761606149.738,-12.207,-34.180,-50.781,-19.043,0.000
1761606149.742,-12.207,-36.133,-47.363,-15.137,0.000
1761606149.746,-19.531,-39.062,-52.246,-32.715,0.000
1761606149.750,-12.695,-35.156,-54.688,-21.973,0.000
1761606149.754,-3.418,-28.809,-53.223,-13.672,0.000
1761606149.758,-14.648,-38.086,-55.664,-28.320,0.000
1761606149.762,-10.742,-39.062,-52.734,-24.902,0.000
1761606149.766,-4.883,-36.621,-44.922,-17.090,0.000
1761606149.770,-6.836,-33.203,-41.504,-13.184,0.000
1761606149.774,-11.230,-31.250,-41.992,-17.090,0.000
1761606149.778,-10.254,-39.551,-43.457,-19.043,0.000
1761606149.781,-9.277,-37.109,-48.340,-23.438,0.000
1761606149.785,-2.441,-28.320,-48.828,-11.719,0.000
1761606149.789,1.953,-34.180,-39.551,-1.953,0.000
1761606149.793,-4.395,-37.109,-32.227,-11.719,0.000
1761606149.797,-7.324,-37.109,-30.762,-15.137,0.000
1761606149.801,-7.324,-37.598,-31.250,-8.789,0.000
1761606149.805,-11.719,-41.504,-32.715,-12.207,0.000
1761606149.809,-11.230,-43.945,-32.715,-7.324,0.000
1761606149.813,2.441,-35.156,-30.762,-3.906,0.000
1761606149.817,0.000,-26.367,-33.203,-15.137,0.000
1761606149.820,-18.066,-27.832,-36.133,-20.508,0.000
1761606149.824,-20.508,-36.621,-33.691,-20.020,0.000
1761606149.828,-14.648,-36.621,-24.902,-8.789,0.000
1761606149.832,-24.902,-30.762,-16.113,-6.836,0.000
1761606149.836,-31.250,-35.645,-15.137,-13.184,0.000
1761606149.840,-30.762,-38.086,-15.625,-21.484,0.000
1761606149.844,-43.945,-39.551,-4.395,-38.086,0.000
1761606149.848,-39.551,-37.598,5.371,-40.039,0.000
1761606149.852,-40.527,-29.785,4.883,-39.062,0.000
1761606149.856,-47.852,-32.227,2.441,-47.363,0.000
1761606149.860,-45.898,-27.832,-4.395,-45.898,0.000
1761606149.863,-50.781,-19.043,-7.812,-42.969,0.000
1761606149.867,-73.730,-20.508,-4.883,-64.941,0.000
1761606149.871,-82.520,-26.367,-5.371,-70.801,0.000
1761606149.875,-68.848,-28.320,-4.395,-65.430,0.000
1761606149.879,-55.664,-23.438,-8.301,-65.918,0.000
1761606149.883,-78.125,-26.367,-7.324,-73.242,0.000
1761606149.887,-87.891,-36.133,-1.465,-72.754,0.000
1761606149.891,-59.082,-29.297,-3.906,-62.500,0.000
1761606149.895,-54.199,-19.531,-5.371,-58.594,0.000
1761606149.899,-74.219,-13.184,-6.836,-54.199,0.000
1761606149.903,-81.055,-0.977,-10.742,-61.523,0.000
1761606149.906,-90.332,-7.812,-12.207,-79.102,0.000
1761606149.910,-87.402,-13.672,-11.230,-72.754,0.000
1761606149.914,-82.031,-12.207,-15.137,-75.195,0.000
1761606149.918,-79.590,-14.648,-12.207,-66.895,0.000
1761606149.922,-86.914,-16.113,-2.930,-62.012,0.000
1761606149.926,-87.891,-23.438,1.953,-71.289,0.000
1761606149.930,-61.035,-22.949,4.395,-57.617,0.000
1761606149.934,-50.781,-13.184,-8.789,-51.758,0.000
1761606149.938,-56.641,-4.883,-17.090,-48.340,0.000
1761606149.942,-71.777,-8.789,-13.184,-61.523,0.000
1761606149.945,-80.566,-17.090,-10.742,-66.895,0.000
1761606149.949,-65.430,-12.207,-5.859,-49.805,0.000
1761606149.953,-57.617,-7.324,0.000,-55.664,0.000
1761606149.957,-52.734,-11.719,-5.859,-64.941,0.000
1761606149.961,-48.340,-15.137,-11.719,-62.012,0.000
1761606149.965,-46.387,-17.578,-12.695,-63.965,0.000
1761606149.969,-35.645,-17.090,-16.113,-60.547,0.000
1761606149.973,-25.879,-11.230,-16.113,-44.922,0.000
1761606149.977,-30.762,-11.719,-10.254,-43.945,0.000
1761606149.981,-33.691,-15.137,-7.812,-46.387,0.000
1761606149.985,-44.434,-21.973,-14.648,-43.945,0.000
1761606149.988,-62.988,-26.367,-16.602,-48.340,0.000
1761606149.992,-63.965,-28.809,-11.230,-44.434,0.000
1761606149.996,-55.664,-26.367,-13.184,-36.133,0.000
1761606150.000,-55.176,-19.043,-22.461,-36.133,0.000
1761606150.004,-55.664,-17.578,-31.250,-45.410,0.000
1761606150.008,-52.246,-13.184,-35.156,-52.734,0.000
1761606150.012,-62.500,-17.090,-22.461,-60.059,0.000
1761606150.016,-63.477,-19.531,-13.672,-61.523,0.000
1761606150.020,-46.875,-10.742,-18.066,-53.223,0.000
1761606150.024,-42.969,-9.277,-22.949,-45.898,0.000
1761606150.028,-52.246,-17.578,-20.996,-44.434,0.000
1761606150.031,-58.594,-16.113,-29.297,-64.941,0.000
1761606150.035,-62.012,-14.648,-39.551,-81.055,0.000
1761606150.039,-59.570,-16.602,-35.156,-71.289,0.000
1761606150.043,-51.758,-15.625,-24.414,-55.176,0.000
1761606150.047,-45.410,-11.719,-19.043,-54.199,0.000
1761606150.051,-38.574,-9.277,-21.484,-51.758,0.000
1761606150.055,-38.574,-13.184,-29.297,-52.246,0.000
1761606150.059,-45.410,-23.438,-29.297,-55.176,0.000
1761606150.063,-40.039,-29.785,-23.926,-41.992,0.000
1761606150.067,-27.344,-20.020,-38.574,-39.062,0.000
1761606150.070,-19.043,-14.648,-45.410,-43.457,0.000
1761606150.074,-28.320,-19.531,-26.855,-46.387,0.000
1761606150.078,-45.410,-27.344,-20.996,-46.875,0.000
1761606150.082,-38.574,-36.621,-26.855,-41.016,0.000
1761606150.086,-19.531,-40.039,-28.320,-38.574,0.000
1761606150.090,-20.020,-31.738,-40.527,-46.875,0.000
1761606150.094,-27.344,-24.902,-46.875,-43.945,0.000
1761606150.098,-26.855,-29.785,-45.410,-35.156,0.000
1761606150.102,-26.367,-26.367,-43.945,-51.758,0.000
1761606150.106,-32.715,-20.020,-40.039,-53.711,0.000
1761606150.110,-39.551,-19.043,-41.504,-44.922,0.000
1761606150.113,-44.922,-32.227,-38.086,-44.434,0.000
1761606150.117,-29.785,-37.598,-33.203,-32.227,0.000
1761606150.121,-20.996,-27.344,-41.504,-38.086,0.000
1761606150.125,-30.762,-19.043,-50.781,-54.199,0.000
1761606150.129,-29.785,-13.672,-50.293,-50.781,0.000
1761606150.133,-22.949,-15.137,-41.992,-42.480,0.000
1761606150.137,-19.043,-18.066,-35.645,-38.086,0.000
1761606150.141,-21.973,-23.926,-37.109,-36.621,0.000
1761606150.145,-28.320,-23.926,-40.039,-43.945,0.000
1761606150.149,-23.926,-21.484,-43.945,-42.480,0.000
1761606150.153,-22.461,-28.809,-47.363,-32.715,0.000
1761606150.156,-21.973,-26.855,-54.688,-35.645,0.000
1761606150.160,-17.578,-23.438,-56.152,-33.203,0.000
1761606150.164,-16.113,-27.832,-51.270,-30.273,0.000
1761606150.168,-9.277,-32.715,-51.270,-17.578,0.000
1761606150.172,-14.160,-31.250,-48.340,-14.648,0.000
1761606150.176,-22.461,-27.832,-45.898,-25.879,0.000
1761606150.180,-19.043,-26.855,-40.527,-24.414,0.000
1761606150.184,-12.695,-24.414,-37.109,-28.809,0.000
1761606150.188,-12.207,-27.832,-40.039,-27.832,0.000
1761606150.192,-22.949,-38.086,-42.969,-29.785,0.000
1761606150.195,-29.785,-31.738,-42.969,-42.969,0.000
1761606150.199,-29.297,-25.391,-45.898,-45.410,0.000
1761606150.203,-28.809,-32.715,-45.898,-26.855,0.000
1761606150.207,-36.133,-40.527,-37.598,-29.297,0.000
1761606150.211,-38.574,-39.551,-33.691,-41.504,0.000
1761606150.215,-36.133,-41.016,-42.480,-35.156,0.000
1761606150.219,-35.645,-48.828,-47.852,-33.203,0.000
1761606150.223,-23.926,-41.992,-46.875,-22.461,0.000
1761606150.227,-14.160,-30.762,-46.875,-16.113,0.000
1761606150.231,-15.625,-33.203,-39.551,-13.672,0.000
1761606150.235,-12.207,-40.039,-38.574,-14.648,0.000
1761606150.238,-8.301,-36.133,-41.992,-18.555,0.000
1761606150.242,-11.719,-36.621,-39.551,-21.484,0.000
1761606150.246,-15.625,-41.016,-43.945,-23.926,0.000
1761606150.250,-11.719,-41.992,-50.293,-18.066,0.000
1761606150.254,3.906,-36.621,-46.875,-4.395,0.000
1761606150.258,5.371,-32.715,-38.086,-6.348,0.000
1761606150.262,-6.348,-41.992,-41.016,-16.602,0.000
1761606150.266,-9.766,-46.875,-46.875,-22.461,0.000
1761606150.270,-9.277,-40.039,-46.875,-17.090,0.000
1761606150.274,-8.301,-38.574,-43.945,-10.254,0.000
1761606150.278,-14.648,-44.434,-40.039,-19.531,0.000
1761606150.281,-19.531,-40.527,-40.039,-23.438,0.000
1761606150.285,-19.043,-38.086,-43.945,-15.625,0.000
1761606150.289,-25.879,-48.340,-40.039,-20.996,0.000
1761606150.293,-32.715,-48.340,-38.086,-23.926,0.000
1761606150.297,-33.203,-44.922,-41.016,-21.973,0.000
1761606150.301,-28.320,-40.527,-36.621,-17.090,0.000
1761606150.305,-21.484,-36.621,-36.133,-14.160,0.000
1761606150.309,-20.508,-41.992,-44.434,-20.020,0.000
1761606150.313,-26.855,-43.457,-51.758,-31.250,0.000
1761606150.317,-29.297,-36.133,-49.805,-33.691,0.000
1761606150.320,-29.297,-36.621,-42.969,0.000,0.000
1761606150.324,-26.367,-39.551,-42.480,0.000,0.000
1761606150.328,-32.227,-45.410,-48.340,0.000,0.000
1761606150.332,-32.227,-41.992,-42.969,0.000,0.000
1761606150.336,-16.602,-25.879,-35.645,0.000,0.000
1761606150.340,-6.348,-27.832,-39.551,0.000,0.000
1761606150.344,-6.836,-32.715,-40.039,0.000,0.000
1761606150.348,-3.418,-29.785,-34.668,0.000,0.000
1761606150.352,-5.371,-35.156,-36.621,0.000,0.000
1761606150.356,-4.883,-39.551,-37.109,0.000,0.000
1761606150.360,-5.859,-41.992,-37.598,0.000,0.000
1761606150.363,-12.207,-45.898,-43.457,0.000,0.000
1761606150.367,-18.066,-42.969,-37.598,-18.066,0.000
1761606150.371,-22.949,-38.086,-38.086,-18.555,0.000
1761606150.375,-23.438,-33.691,-43.457,-32.227,0.000
1761606150.379,-21.973,-37.109,-40.039,-35.156,0.000
1761606150.383,-24.414,-43.945,-39.551,-33.691,0.000
1761606150.387,-30.273,-43.457,-36.621,-30.762,0.000
1761606150.391,-36.133,-44.434,-30.762,-35.156,0.000
1761606150.395,-39.551,-41.992,-30.762,-23.926,0.000
1761606150.399,-47.852,-42.969,-31.738,-29.297,0.000
1761606150.402,-53.223,-45.898,-35.645,-46.387,0.000
1761606150.406,-34.180,-42.480,-37.109,-34.668,0.000
1761606150.410,-19.531,-38.574,-35.645,-28.320,0.000
1761606150.414,0.000,-40.039,-38.086,-26.855,0.000
1761606150.418,0.000,-41.016,-38.574,-12.207,0.000
1761606150.422,0.000,-36.133,-39.551,-14.160,0.000
1761606150.426,0.000,-41.504,-41.992,-33.691,0.000
1761606150.430,0.000,-48.340,-37.598,-36.133,0.000
1761606150.434,0.000,-46.387,-31.738,-25.391,0.000
1761606150.438,0.000,-42.480,-30.762,-25.879,0.000
1761606150.442,0.000,-39.062,-27.344,-20.996,0.000
1761606150.445,0.000,-40.527,-25.879,-18.066,0.000
1761606150.449,0.000,-34.180,-29.297,-29.297,0.000
1761606150.453,0.000,-35.645,-22.949,-18.066,0.000
1761606150.457,0.000,-46.875,-20.020,-23.926,0.000
1761606150.461,-34.668,-48.340,-28.320,-40.527,0.000
1761606150.465,-38.086,-49.316,-28.809,-43.457,0.000
1761606150.469,-40.039,-50.781,-27.344,-40.527,0.000
1761606150.473,-33.203,-49.805,-26.367,-30.762,0.000
1761606150.477,-34.180,-42.969,-26.855,-29.785,0.000
1761606150.481,-38.574,-39.062,-27.832,-27.344,0.000
1761606150.485,-37.109,-35.156,-26.855,-27.344,0.000
1761606150.488,-34.668,-37.598,-31.250,-35.156,0.000
1761606150.492,-39.062,-44.434,-39.062,-42.480,0.000
1761606150.496,-41.992,-44.434,-41.016,-48.340,0.000
1761606150.500,-43.945,-46.387,-36.621,-48.828,0.000
1761606150.504,-42.480,-46.875,-29.785,-43.457,0.000
1761606150.508,-36.621,-42.480,-29.297,-39.551,0.000
1761606150.512,-32.715,-46.387,-30.762,-35.156,0.000
1761606150.516,-27.832,-47.852,-33.203,-37.109,0.000
1761606150.520,-16.602,-41.504,-30.762,-40.527,0.000
1761606150.524,-15.137,-41.016,-31.250,-35.645,0.000
1761606150.527,-22.461,-40.527,-29.297,-18.555,0.000
1761606150.531,-19.043,-40.039,-20.996,-14.160,0.000
1761606150.535,-18.555,-45.410,-18.066,-22.949,0.000
1761606150.539,-25.391,-43.945,-18.555,-27.344,0.000
1761606150.543,-43.945,-47.363,-24.414,-46.875,0.000
1761606150.547,-50.781,-40.527,-23.438,-45.410,0.000
1761606150.551,-29.297,-27.344,-21.484,-20.996,0.000
1761606150.555,-27.344,-27.344,-23.926,-23.926,0.000
1761606150.559,-43.457,-27.832,-25.879,-33.203,0.000
1761606150.563,-42.969,-30.762,-25.391,-24.414,0.000
1761606150.567,-37.598,-36.621,-26.367,-24.414,0.000
1761606150.570,-41.504,-40.039,-24.414,-24.414,0.000
1761606150.574,-46.387,-41.016,-18.555,-26.855,0.000
1761606150.578,-53.711,-38.574,-21.484,-36.621,0.000
1761606150.582,-49.805,-31.250,-19.531,-35.645,0.000
1761606150.586,-37.598,-24.414,-15.625,-41.992,0.000
1761606150.590,-37.598,-23.438,-12.695,-43.945,0.000
1761606150.594,-42.480,-21.973,-19.043,-50.781,0.000
1761606150.598,-42.969,-23.438,-22.461,-59.570,0.000
1761606150.602,-41.504,-28.809,-20.020,-47.363,0.000
1761606150.606,-37.109,-31.250,-18.555,-41.504,0.000
1761606150.610,-41.504,-37.109,-19.531,-43.457,0.000
1761606150.613,-45.410,-39.551,-20.996,-40.527,0.000
1761606150.617,-31.738,-36.621,-20.508,-36.133,0.000
1761606150.621,-23.438,-36.621,-21.973,-37.109,0.000
1761606150.625,-19.531,-41.016,-27.832,-34.668,0.000
1761606150.629,-28.320,-42.969,-32.715,-33.203,0.000
1761606150.633,-35.156,-40.039,-29.785,-39.062,0.000
1761606150.637,-26.855,-42.480,-27.832,-35.156,0.000
1761606150.641,-28.809,-43.457,-29.785,-28.809,0.000
1761606150.645,-28.809,-35.156,-27.832,-20.020,0.000
1761606150.649,-18.066,-32.715,-25.391,-19.043,0.000
1761606150.652,-23.926,-38.574,-21.484,-28.809,0.000
1761606150.656,-40.039,-30.762,-18.555,-30.762,0.000
1761606150.660,-41.016,-28.320,-20.508,-44.922,0.000
1761606150.664,-36.621,-31.738,-20.996,-44.434,0.000
1761606150.668,-40.527,-30.762,-21.484,-32.715,0.000
1761606150.672,-39.062,-36.621,-24.414,-40.527,0.000
1761606150.676,-47.852,-38.086,-23.438,-41.504,0.000
1761606150.680,-51.758,-32.715,-21.973,-38.086,0.000
1761606150.684,-41.504,-30.273,-19.043,-38.574,0.000
1761606150.688,-39.551,-33.203,-16.602,-35.645,0.000
1761606150.692,-35.645,-33.203,-21.973,-39.062,0.000
1761606150.695,-29.297,-32.227,-23.926,-50.293,0.000
1761606150.699,-23.438,-33.691,-22.461,-48.340,0.000
1761606150.703,-10.254,-35.645,-24.902,-39.062,0.000
1761606150.707,-6.348,-41.504,-26.367,-49.805,0.000
1761606150.711,-20.508,-41.992,-28.809,-39.062,0.000
1761606150.715,-24.902,-36.621,-29.785,-18.066,0.000
1761606150.719,-2.441,-35.645,-33.203,-8.301,0.000
1761606150.723,11.230,-34.180,-34.668,3.418,0.000
1761606150.727,2.930,-26.367,-47.363,-15.137,0.000
1761606150.731,8.789,-25.391,-56.641,-18.066,0.000
1761606150.735,8.301,-30.273,-39.551,-17.090,0.000
1761606150.738,-4.395,-31.738,-25.391,-18.555,0.000
1761606150.742,-14.648,-44.922,-26.855,-1.953,0.000
1761606150.746,-13.184,-44.434,-31.250,-9.277,0.000
1761606150.750,-18.555,-34.668,-38.574,-15.625,0.000
1761606150.754,-32.715,-27.344,-46.875,-19.531,0.000
1761606150.758,-19.043,-20.020,-50.293,-26.367,0.000
1761606150.762,12.207,-23.926,-48.828,-6.836,0.000
1761606150.766,-2.441,-28.320,-46.387,-12.695,0.000
1761606150.770,-27.832,-34.668,-49.316,-23.926,0.000
1761606150.774,-7.324,-32.715,-49.316,-3.418,0.000
1761606150.777,5.859,-32.227,-45.898,-7.324,0.000
1761606150.781,6.348,-32.227,-42.480,-2.930,0.000
1761606150.785,9.766,-27.344,-50.293,3.906,0.000
1761606150.789,13.184,-31.250,-58.594,1.465,0.000
1761606150.793,15.625,-34.668,-61.035,11.719,0.000
1761606150.797,14.160,-39.551,-61.523,5.859,0.000
1761606150.801,42.969,-34.668,-66.406,4.395,0.000
1761606150.805,42.969,-29.297,-66.895,6.348,0.000
1761606150.809,7.812,-31.250,-58.594,0.977,0.000
1761606150.813,1.465,-33.691,-54.688,3.418,0.000
1761606150.817,10.254,-34.668,-59.082,5.371,0.000
1761606150.820,24.902,-36.621,-53.223,10.254,0.000
1761606150.824,23.438,-36.133,-45.410,19.043,0.000
1761606150.828,20.020,-35.156,-53.711,4.883,0.000
1761606150.832,13.184,-42.969,-64.453,-10.254,0.000
1761606150.836,-4.395,-39.062,-64.941,-5.859,0.000
1761606150.840,-8.301,-36.621,-58.105,-1.465,0.000
1761606150.844,-7.324,-45.410,-61.035,-12.695,0.000
1761606150.848,8.301,-45.410,-61.523,-18.066,0.000
1761606150.852,20.508,-40.527,-55.176,-6.348,0.000
1761606150.856,15.137,-39.062,-51.270,0.000,0.000
1761606150.860,0.977,-42.480,-47.363,-10.742,0.000
1761606150.863,2.930,-37.598,-48.828,-7.812,0.000
1761606150.867,20.020,-33.203,-51.270,1.953,0.000
1761606150.871,14.648,-35.156,-49.316,2.930,0.000
1761606150.875,2.930,-37.109,-53.223,-3.906,0.000
1761606150.879,14.648,-39.062,-50.781,-11.719,0.000
1761606150.883,20.508,-36.133,-45.410,-8.301,0.000
1761606150.887,14.160,-36.621,-47.852,-11.719,0.000
1761606150.891,12.207,-35.156,-47.852,-19.043,0.000
1761606150.895,1.953,-38.574,-47.852,-15.625,0.000
1761606150.899,5.859,-42.969,-48.828,-5.859,0.000
1761606150.902,9.277,-39.551,-49.316,-6.836,0.000
1761606150.906,1.465,-35.156,-53.711,-15.137,0.000
1761606150.910,-1.953,-36.621,-49.805,-9.766,0.000
1761606150.914,-3.418,-38.574,-44.434,-5.371,0.000
1761606150.918,-11.230,-40.527,-45.898,-15.137,0.000
1761606150.922,-23.926,-44.434,-44.922,-26.367,0.000
1761606150.926,-28.809,-43.945,-42.480,-28.809,0.000
1761606150.930,-21.973,-40.039,-41.504,-30.762,0.000
1761606150.934,-11.719,-38.086,-42.480,-24.902,0.000
1761606150.938,-11.719,-39.551,-45.410,-15.137,0.000
1761606150.942,-18.555,-39.551,-42.969,-26.367,0.000
1761606150.945,-11.230,-41.504,-39.062,-22.461,0.000
1761606150.949,-9.277,-41.016,-44.434,-13.672,0.000
1761606150.953,-9.277,-39.062,-43.457,-17.578,0.000
1761606150.957,-10.742,-38.574,-33.691,-5.859,0.000
1761606150.961,-10.742,-32.715,-28.320,-11.719,0.000
1761606150.965,-7.812,-41.016,-26.367,-18.066,0.000
1761606150.969,-21.973,-42.480,-27.832,-14.648,0.000
1761606150.973,-12.695,-34.180,-31.250,-20.996,0.000
1761606150.977,-1.465,-32.715,0.000,-30.762,0.000
1761606150.981,3.418,-26.855,0.000,-31.250,0.000
1761606150.984,7.324,-31.738,0.000,-13.672,0.000
1761606150.988,-1.465,-37.109,0.000,-16.113,0.000
1761606150.992,-10.254,-35.156,0.000,-28.809,0.000
1761606150.996,0.977,-32.715,0.000,-22.949,0.000
1761606151.000,0.977,-35.156,0.000,-15.137,0.000
1761606151.004,-7.324,-40.039,0.000,-19.043,0.000
1761606151.008,-20.020,-49.316,0.000,-35.156,0.000
1761606151.012,-38.574,-50.781,0.000,-40.039,0.000
1761606151.016,-25.879,-36.133,0.000,-23.438,0.000
1761606151.020,-19.043,-29.785,0.000,-36.133,0.000
1761606151.024,-38.086,-31.250,-21.484,-55.176,0.000
1761606151.027,-43.457,-33.203,-15.137,-46.387,0.000
1761606151.031,-29.785,-28.320,-15.625,-34.668,0.000
1761606151.035,-29.785,-30.762,-19.043,-28.320,0.000
1761606151.039,-33.691,-32.227,-23.438,-32.227,0.000
1761606151.043,-34.180,-28.809,-26.855,-39.062,0.000
1761606151.047,-35.645,-32.715,-30.273,-35.156,0.000
1761606151.051,-26.367,-33.691,-30.762,-32.715,0.000
1761606151.055,-29.785,-35.645,-23.926,-35.156,0.000
1761606151.059,-33.691,-36.133,-25.391,-41.504,0.000
1761606151.063,-39.062,-35.156,-26.367,-61.035,0.000
1761606151.067,-40.039,-38.574,-21.484,-64.941,0.000
1761606151.070,-18.555,-33.691,-23.926,-39.551,0.000
1761606151.074,0.977,-28.809,-24.414,-38.086,0.000
1761606151.078,2.441,-31.738,-28.320,-41.016,0.000
1761606151.082,-13.184,-27.832,-36.621,-25.391,0.000
1761606151.086,-9.766,-26.367,-41.504,-23.438,0.000
1761606151.090,-0.977,-24.902,-40.039,-37.598,0.000
1761606151.094,-0.977,-23.438,-31.250,-37.598,0.000
1761606151.098,-9.277,-27.344,-23.926,-34.668,0.000
1761606151.102,-22.949,-22.949,-23.438,-31.250,0.000
1761606151.106,-20.020,-25.391,-20.996,-30.762,0.000
1761606151.109,-20.508,-36.133,-18.066,-41.016,0.000
1761606151.113,-34.668,-38.574,-21.973,-48.340,0.000
1761606151.117,-41.016,-34.180,-22.461,-40.039,0.000
1761606151.121,-33.203,-33.203,-23.926,-33.691,0.000
1761606151.125,-34.668,-29.297,-26.855,-40.039,0.000
1761606151.129,-43.945,-19.531,-29.297,-41.992,0.000
1761606151.133,-36.621,-23.926,-27.344,-33.203,0.000
1761606151.137,-28.320,-30.762,-26.855,-27.344,0.000
1761606151.141,-30.762,-27.832,-32.227,-35.645,0.000
1761606151.145,-33.203,-27.832,-32.715,-39.551,0.000
1761606151.149,-27.344,-26.367,-29.785,-33.203,0.000
1761606151.152,-9.766,-29.785,-28.320,-28.809,0.000
1761606151.156,-7.324,-28.809,-27.832,-39.551,0.000
1761606151.160,-22.461,-30.273,-29.297,-43.457,0.000
1761606151.164,-27.832,-37.598,-29.785,-30.273,0.000
1761606151.168,-31.250,-38.086,-36.133,-34.180,0.000
1761606151.172,-22.461,-35.156,-42.969,-50.781,0.000
1761606151.176,-22.461,-27.344,-33.691,-42.480,0.000
1761606151.180,-23.926,-29.297,-34.180,-37.109,0.000
1761606151.184,-17.578,-30.273,-41.016,-35.156,0.000
1761606151.188,-28.320,-21.484,-37.109,-31.738,0.000
1761606151.192,-30.762,-20.996,-32.227,-29.785,0.000
1761606151.195,-22.949,-23.926,-33.203,-44.922,0.000
1761606151.199,-18.066,-20.508,-37.109,-60.059,0.000
1761606151.203,-30.273,-20.020,-36.621,-41.504,0.000
1761606151.207,-43.945,-24.902,-40.527,-45.898,0.000
1761606151.211,-36.133,-19.043,-41.016,-67.871,0.000
1761606151.215,-36.133,-20.996,-38.574,-68.848,0.000
1761606151.219,-47.852,-27.344,-37.598,-59.570,0.000
1761606151.223,-48.340,-26.855,-34.668,-53.223,0.000
1761606151.227,-52.246,-24.414,-35.156,-55.176,0.000
1761606151.231,-52.246,-24.902,-35.156,-55.664,0.000
1761606151.234,-50.781,-29.785,-34.668,-51.270,0.000
1761606151.238,-58.594,-29.297,-35.645,-56.152,0.000
1761606151.242,-46.387,-20.020,-38.086,-62.012,0.000
1761606151.246,-32.715,-23.926,-32.715,-47.363,0.000
1761606151.250,-34.180,-32.227,-32.227,-36.621,0.000
1761606151.254,-35.156,-37.109,-42.969,-43.945,0.000
1761606151.258,-37.109,-36.621,-38.086,-50.781,0.000
1761606151.262,-27.344,-23.926,-36.133,-54.199,0.000
1761606151.266,-20.020,-24.414,-47.852,-47.852,0.000
1761606151.270,-26.367,-37.109,-48.828,-51.758,0.000
1761606151.274,-32.715,-28.809,-39.062,-45.898,0.000
1761606151.277,-34.180,-23.926,-32.715,-40.039,0.000
1761606151.281,-28.809,-28.320,-29.785,-51.758,0.000
1761606151.285,-16.602,-28.320,-31.250,-49.316,0.000
1761606151.289,-19.531,-30.273,-32.715,-50.781,0.000
1761606151.293,-24.902,-28.320,-31.738,-59.082,0.000
1761606151.297,-23.438,-26.367,-32.227,-67.383,0.000
1761606151.301,-24.902,-20.996,-27.832,-55.176,0.000
1761606151.305,-35.645,-20.996,-24.414,-33.691,0.000
1761606151.309,-38.086,-22.461,-32.715,-56.641,0.000
1761606151.313,-48.828,-23.926,-33.203,-51.758,0.000
1761606151.317,-69.824,-26.855,-26.367,-12.695,0.000
1761606151.320,-60.547,-22.949,-32.227,-35.156,0.000
1761606151.324,-45.898,-23.926,-44.922,-91.309,0.000
1761606151.328,-64.453,-26.367,-37.598,-57.129,0.000
1761606151.332,-62.500,-28.809,-26.855,-18.555,0.000
1761606151.336,-40.039,-25.879,-32.227,-70.801,0.000
1761606151.340,-55.176,-23.438,-26.367,-90.820,0.000
1761606151.344,-53.223,-30.273,-23.926,-87.402,0.000
1761606151.348,-33.691,-28.809,-25.391,-92.773,0.000
1761606151.352,-40.039,-24.902,-24.414,-83.496,0.000
1761606151.356,-39.551,-22.949,-33.691,-94.238,0.000
1761606151.359,-37.109,-23.926,-31.250,-92.285,0.000
1761606151.363,-47.363,-26.367,-22.949,-64.941,0.000
1761606151.367,-53.711,-31.250,-23.438,-58.594,0.000
1761606151.371,-61.035,-40.039,-20.996,-59.082,0.000
1761606151.375,-69.824,-42.480,-17.578,-51.270,0.000
1761606151.379,-63.965,-36.621,-18.066,-63.965,0.000
1761606151.383,-62.988,-28.809,-16.602,-56.641,0.000
1761606151.387,-61.035,-26.855,-15.625,-50.293,0.000
1761606151.391,-51.758,-24.902,-16.113,-78.613,0.000
1761606151.395,-50.781,-21.973,-23.438,-105.469,0.000
1761606151.399,-51.758,-20.508,-27.832,-120.605,0.000
1761606151.402,-75.195,-24.902,-17.578,-73.730,0.000
1761606151.406,-99.121,-23.438,-16.113,-40.527,0.000
1761606151.410,-88.379,-18.555,-25.879,-63.477,0.000
1761606151.414,-68.848,-19.531,-25.391,-76.172,0.000
1761606151.418,-41.504,-20.508,-25.391,-84.473,0.000
1761606151.422,-45.410,-20.996,-25.879,-78.125,0.000
1761606151.426,-63.477,-18.555,-32.227,-51.270,0.000
1761606151.430,-63.477,-24.902,-42.969,-41.016,0.000
1761606151.434,-62.988,-33.203,-43.457,-38.574,0.000
1761606151.438,-45.898,-32.715,-48.340,-51.270,0.000
1761606151.441,-26.367,-38.574,-53.711,-63.965,0.000
1761606151.445,-27.344,-44.922,-52.246,-39.551,0.000
1761606151.449,-25.391,-49.316,-49.805,-6.836,0.000
1761606151.453,-8.789,-56.641,-48.828,-0.977,0.000
1761606151.457,-4.883,-48.340,-55.664,-17.578,0.000
1761606151.461,-5.859,-44.434,-62.012,-20.508,0.000
1761606151.465,6.348,-48.340,-53.711,-16.602,0.000
1761606151.469,18.066,-48.828,-51.758,-46.387,0.000
1761606151.473,15.137,-45.410,-55.664,-49.316,0.000
1761606151.477,-3.418,-41.016,-48.828,-9.277,0.000
1761606151.481,-4.395,-36.621,-46.387,5.859,0.000
1761606151.484,-1.953,-33.203,-42.480,-14.648,0.000
1761606151.488,-10.742,-36.133,-42.480,-26.855,0.000
1761606151.492,0.000,-38.086,-50.293,-38.086,0.000
1761606151.496,0.000,-34.180,-48.828,-52.246,0.000
1761606151.500,0.000,-36.621,-41.504,-41.992,0.000
1761606151.504,0.000,-34.668,-40.039,-37.109,0.000
1761606151.508,0.000,-33.203,-45.898,-38.574,0.000
1761606151.512,0.000,-38.574,-47.852,-34.180,0.000
1761606151.516,0.000,-40.039,-40.527,-36.621,0.000
1761606151.520,0.000,-40.039,-40.039,-40.039,0.000
1761606151.524,0.000,-39.062,-44.922,-30.273,0.000
1761606151.527,0.000,-39.551,-42.969,-23.438,0.000
1761606151.531,0.000,-38.574,-36.133,-26.367,0.000
1761606151.535,0.000,-40.039,-39.062,-34.668,0.000
1761606151.539,-30.273,-39.062,-44.434,-47.852,0.000
1761606151.543,-31.250,-30.762,-34.668,-46.875,0.000
1761606151.547,-20.020,-32.227,-32.227,-35.645,0.000
1761606151.551,-15.137,-41.504,-42.480,-35.645,0.000
1761606151.555,-20.508,-45.410,-45.410,-39.551,0.000
1761606151.559,-26.367,-48.340,-38.574,-38.574,0.000
1761606151.563,-24.414,-46.387,-32.715,-40.039,0.000
1761606151.566,-19.531,-41.016,-30.762,-34.180,0.000
1761606151.570,-21.973,-41.504,-29.785,-27.344,0.000
1761606151.574,-28.320,-41.504,-31.738,-36.621,0.000
1761606151.578,-23.926,-40.527,-27.344,-37.598,0.000
1761606151.582,-19.531,-40.039,-29.785,-30.273,0.000
1761606151.586,-28.809,-42.969,-35.156,-34.180,0.000
1761606151.590,-34.180,-47.852,-32.715,-37.598,0.000
1761606151.594,-32.715,-43.945,-33.691,-44.434,0.000
1761606151.598,-31.738,-42.480,-30.273,-32.715,0.000
1761606151.602,-31.738,-49.316,-25.391,-20.996,0.000
1761606151.606,-34.180,-44.922,-26.855,-26.855,0.000
1761606151.609,-39.062,-41.992,-29.785,-34.180,0.000
1761606151.613,-35.156,-41.504,-28.320,-27.832,0.000
1761606151.617,-31.738,-39.062,-31.738,-14.648,0.000
1761606151.621,-31.250,-43.457,-36.621,-14.648,0.000
1761606151.625,-28.320,-45.410,-34.180,-16.113,0.000
1761606151.629,-34.180,-44.922,-38.086,-15.625,0.000
1761606151.633,-30.273,-41.992,-31.738,-14.160,0.000
1761606151.637,-12.695,-39.551,-27.832,-6.836,0.000
1761606151.641,-4.883,-40.039,-33.203,-8.301,0.000
1761606151.645,-6.836,-36.133,-27.832,-11.230,0.000
1761606151.649,-20.508,-46.875,-31.738,-18.555,0.000
1761606151.652,-23.438,-49.316,-33.203,-32.715,0.000
1761606151.656,-17.090,-38.574,-31.250,-38.086,0.000
1761606151.660,-21.484,-42.969,-29.297,-25.879,0.000
1761606151.664,-27.344,-45.410,-33.203,-26.367,0.000
1761606151.668,-32.715,-41.504,-39.062,-34.668,0.000
1761606151.672,-36.621,-40.039,-36.621,-35.156,0.000
1761606151.676,-57.617,-50.781,-41.016,-55.176,0.000
1761606151.680,-61.035,-48.828,-42.969,-52.246,0.000
1761606151.684,-36.621,-37.109,-30.273,-31.250,0.000
1761606151.688,-29.297,-39.551,-25.391,-27.832,0.000
1761606151.691,-31.250,-37.598,-26.367,-29.297,0.000
1761606151.695,-31.738,-32.227,-31.738,-26.367,0.000
1761606151.699,-26.855,-31.250,-29.785,-22.949,0.000
1761606151.703,-29.297,-39.062,-27.344,-20.996,0.000
1761606151.707,-44.434,-46.875,-27.344,-26.367,0.000
1761606151.711,-42.480,-46.387,-21.484,-29.785,0.000
1761606151.715,-38.086,-45.898,-23.926,-29.297,0.000
1761606151.719,-40.527,-47.852,-32.715,-22.461,0.000
1761606151.723,-36.133,-42.969,-30.762,-18.555,0.000
1761606151.727,-36.621,-42.969,-25.391,-26.367,0.000
1761606151.731,-37.598,-47.363,-32.715,-31.250,0.000
1761606151.734,-26.855,-43.457,-34.668,-24.902,0.000
1761606151.738,-21.484,-40.527,-31.738,-24.414,0.000
1761606151.742,-32.227,-43.457,-30.273,-37.598,0.000
1761606151.746,-36.621,-44.434,-30.273,-39.551,0.000
1761606151.750,-37.598,-41.016,-35.156,-48.340,0.000
1761606151.754,-34.668,-38.086,-33.203,-53.711,0.000
1761606151.758,-34.668,-31.250,-33.203,-52.246,0.000
1761606151.762,-35.156,-31.738,-34.668,-50.781,0.000
1761606151.766,-28.320,-37.109,-29.297,-45.410,0.000
1761606151.770,-39.062,-36.621,-30.762,-45.898,0.000
1761606151.774,-50.781,-31.738,0.000,-55.664,0.000
1761606151.777,-48.340,-28.320,0.000,-60.059,0.000
1761606151.781,-39.551,-26.855,0.000,-53.711,0.000
1761606151.785,-38.574,-28.320,0.000,-49.316,0.000
1761606151.789,-45.898,-31.738,0.000,-56.641,0.000
1761606151.793,-42.480,-29.785,0.000,-54.199,0.000
1761606151.797,-44.922,-27.832,0.000,-50.293,0.000
1761606151.801,-49.805,-29.297,0.000,-54.199,0.000
1761606151.805,-49.316,-27.344,0.000,-53.711,0.000
1761606151.809,-51.270,-30.273,0.000,-52.734,0.000
1761606151.813,-56.152,-36.133,0.000,-47.852,0.000
1761606151.816,-52.734,-33.203,0.000,-41.016,0.000
1761606151.820,-40.039,-27.344,-26.855,-38.574,0.000
1761606151.824,-36.621,-29.785,-29.297,-38.574,0.000
1761606151.828,-40.039,-34.180,-26.367,-36.621,0.000
1761606151.832,-39.062,-37.109,-26.367,-31.738,0.000
1761606151.836,-38.086,-35.645,-20.996,-29.297,0.000
1761606151.840,-41.504,-30.273,-17.090,-32.715,0.000
1761606151.844,-53.223,-30.762,-8.789,-40.527,0.000
1761606151.848,-54.199,-34.668,-8.789,-40.527,0.000
1761606151.852,-35.645,-34.180,-18.066,-22.949,0.000
1761606151.856,-38.086,-35.645,-18.555,-19.043,0.000
1761606151.859,-53.711,-41.992,-18.066,-39.062,0.000
1761606151.863,-59.082,-45.410,-23.438,-53.223,0.000
1761606151.867,-51.270,-38.574,-25.879,-41.992,0.000
1761606151.871,-47.363,-28.809,-18.555,-32.715,0.000
1761606151.875,-54.688,-34.668,-16.602,-38.574,0.000
1761606151.879,-56.641,-38.574,-17.578,-43.945,0.000
1761606151.883,-60.059,-38.086,-15.625,-44.922,0.000
1761606151.887,-65.430,-40.527,-19.531,-43.457,0.000
1761606151.891,-59.082,-38.086,-24.902,-37.109,0.000
1761606151.895,-51.270,-41.992,-34.180,-36.621,0.000
1761606151.899,-47.363,-45.410,-34.668,-30.762,0.000
1761606151.902,-39.062,-41.016,-31.250,-22.949,0.000
1761606151.906,-34.668,-39.062,-28.809,-26.367,0.000
1761606151.910,-27.832,-36.133,-25.391,-20.020,0.000
1761606151.914,-24.414,-37.109,-28.320,-20.996,0.000
1761606151.918,-27.344,-41.016,-32.227,-26.367,0.000
1761606151.922,-28.320,-40.527,-40.527,-28.320,0.000
1761606151.926,-30.273,-39.062,-38.086,-22.949,0.000
1761606151.930,-25.391,-40.527,-35.645,-7.812,0.000
1761606151.934,-17.578,-37.598,-39.551,-11.230,0.000
1761606151.938,-19.531,-42.480,-39.062,-21.973,0.000
1761606151.941,-20.508,-45.410,-39.062,-20.996,0.000
1761606151.945,-19.531,-33.691,-31.250,-19.043,0.000
1761606151.949,-26.855,-29.297,-33.691,-23.438,0.000
1761606151.953,-26.855,-32.715,-41.504,-22.461,0.000
1761606151.957,-19.531,-33.203,-38.574,-13.184,0.000
1761606151.961,-23.926,-40.527,-41.016,-12.207,0.000
1761606151.965,-28.320,-47.852,-42.480,-19.531,0.000
1761606151.969,-28.320,-49.805,-35.156,-22.949,0.000
1761606151.973,-30.273,-50.781,-34.180,-32.227,0.000
1761606151.977,-37.109,-50.781,-34.668,-35.156,0.000
1761606151.981,-47.363,-43.457,-33.691,-24.902,0.000
1761606151.984,-41.016,-36.621,-37.109,-27.344,0.000
1761606151.988,-37.598,-35.156,-41.016,-31.738,0.000
1761606151.992,-41.016,-37.109,-40.039,-29.297,0.000
1761606151.996,-37.598,-34.668,-41.504,-28.809,0.000
1761606152.000,-28.320,-37.109,-38.574,-20.996,0.000
1761606152.004,-16.602,-40.527,-35.156,-18.555,0.000
1761606152.008,-22.461,-35.645,-39.062,-14.648,0.000
1761606152.012,-25.391,-35.156,-32.715,-7.812,0.000
1761606152.016,-20.020,-35.156,-31.738,-12.207,0.000
1761606152.020,-18.066,-30.762,-35.645,-19.531,0.000
1761606152.023,-20.508,-24.902,-41.992,-25.391,0.000
1761606152.027,-27.832,-25.391,-46.875,-23.438,0.000
1761606152.031,-27.832,-24.902,-45.898,-22.461,0.000
1761606152.035,-19.531,-25.879,-41.992,-14.160,0.000
1761606152.039,-11.230,-24.902,-31.250,-2.930,0.000
1761606152.043,-18.555,-28.320,-25.391,-10.742,0.000
1761606152.047,-28.320,-41.016,-29.785,-32.715,0.000
1761606152.051,-30.762,-41.504,-26.855,-40.527,0.000
1761606152.055,-37.598,-33.691,-25.879,-40.039,0.000
1761606152.059,-46.875,-28.809,-37.109,-41.016,0.000
1761606152.063,-47.363,-28.809,-37.598,-39.551,0.000
1761606152.066,-43.945,-26.367,-39.062,-40.527,0.000
1761606152.070,-44.922,-21.973,-40.039,-39.551,0.000
1761606152.074,-41.504,-25.391,-30.762,-35.645,0.000
1761606152.078,-38.574,-28.320,-24.902,-26.367,0.000
1761606152.082,-38.086,-27.832,-23.438,-19.531,0.000
1761606152.086,-44.922,-31.738,-19.531,-37.598,0.000
1761606152.090,-53.711,-32.715,-13.184,-46.875,0.000
1761606152.094,-49.805,-28.320,-19.043,-38.086,0.000
1761606152.098,-37.109,-22.949,-24.414,-30.273,0.000
1761606152.102,-28.320,-18.555,-24.902,-28.320,0.000
1761606152.106,-27.344,-15.625,-26.855,-34.668,0.000
1761606152.109,-28.320,-11.719,-28.320,-35.156,0.000
1761606152.113,-26.367,-13.184,-26.855,-28.809,0.000
1761606152.117,-22.949,-24.414,-25.879,-27.832,0.000
1761606152.121,-19.531,-29.785,-28.320,-30.762,0.000
1761606152.125,-13.672,-27.832,-24.414,-23.926,0.000
1761606152.129,-11.230,-28.320,-18.066,-23.438,0.000
1761606152.133,-13.184,-26.367,-18.555,-34.668,0.000
1761606152.137,-19.043,-22.461,-18.555,-40.039,0.000
1761606152.141,-24.902,-19.043,-20.508,-43.457,0.000
1761606152.145,-30.762,-20.996,-23.438,-45.410,0.000
1761606152.148,0.000,-29.297,-33.691,-52.246,0.000
1761606152.152,0.000,-27.344,-38.086,-53.711,0.000
1761606152.156,0.000,-22.949,-34.180,-49.316,0.000
1761606152.160,0.000,-24.414,-39.062,-62.012,0.000
1761606152.164,0.000,-28.320,-37.109,-64.941,0.000
1761606152.168,0.000,-31.250,-28.809,-58.105,0.000
1761606152.172,0.000,-39.551,-22.461,-55.664,0.000
1761606152.176,0.000,-34.668,-21.973,-58.594,0.000
1761606152.180,0.000,-25.879,-22.949,-54.688,0.000
1761606152.184,0.000,-26.367,-24.902,-40.039,0.000
1761606152.188,0.000,-26.855,-26.855,-41.504,0.000
1761606152.191,0.000,-32.715,-30.273,-51.270,0.000
1761606152.195,-46.875,-30.762,-37.598,-48.340,0.000
1761606152.199,-36.621,-29.785,-40.039,-42.969,0.000
1761606152.203,-33.203,-36.133,-37.598,-42.969,0.000
1761606152.207,-28.320,-33.691,-28.809,-34.668,0.000
1761606152.211,-21.973,-32.227,-28.320,-34.180,0.000
1761606152.215,-22.949,-41.016,-33.203,-37.109,0.000
1761606152.219,-33.691,-55.176,-31.738,-38.086,0.000
1761606152.223,-37.109,-52.734,-31.250,-45.898,0.000
1761606152.227,-29.297,-36.621,-30.762,-38.086,0.000
1761606152.231,-33.691,-37.109,-33.691,-35.645,0.000
1761606152.234,-37.598,-37.598,-37.109,-42.969,0.000
1761606152.238,-38.086,-29.785,-43.945,-47.363,0.000
1761606152.242,-38.086,-33.691,-46.875,-49.805,0.000
1761606152.246,-41.016,-41.016,-42.969,-48.828,0.000
1761606152.250,-35.645,-38.086,-43.457,-41.992,0.000
1761606152.254,-31.250,-34.668,-45.410,-45.410,0.000
1761606152.258,-36.621,-35.645,-39.551,-49.316,0.000
1761606152.262,-34.668,-44.922,-27.832,-37.109,0.000
1761606152.266,-39.551,-52.734,-20.996,-42.969,0.000
1761606152.270,-44.922,-49.805,-19.043,-52.734,0.000
1761606152.273,-33.691,-42.480,-17.090,-33.691,0.000
1761606152.277,-25.879,-39.551,-15.137,-19.531,0.000
1761606152.281,-25.879,-36.133,-15.625,-28.809,0.000
1761606152.285,-23.438,-34.180,-20.996,-30.273,0.000
1761606152.289,-25.391,-36.133,-26.367,-33.691,0.000
1761606152.293,-25.391,-34.180,-24.414,-30.762,0.000
1761606152.297,-22.461,-38.086,-25.879,-24.902,0.000
1761606152.301,-15.137,-39.062,-27.344,-13.184,0.000
1761606152.305,-26.855,-42.480,-26.367,-21.484,0.000
1761606152.309,-46.387,-48.340,-26.855,-41.016,0.000
1761606152.313,-37.598,-48.340,-27.344,-29.297,0.000
1761606152.316,-20.996,-46.387,-29.297,-17.578,0.000
1761606152.320,-12.207,-45.410,-23.926,-6.836,0.000
1761606152.324,-9.766,-44.922,-21.484,-12.207,0.000
1761606152.328,-18.066,-41.504,-22.949,-27.344,0.000
1761606152.332,-21.973,-43.945,-19.043,-32.227,0.000
1761606152.336,-9.277,-35.156,-17.578,-17.578,0.000
1761606152.340,-5.371,-33.203,-23.438,-15.625,0.000
1761606152.344,-12.695,-42.480,-26.367,-26.367,0.000
1761606152.348,-16.113,-45.410,-22.949,-32.715,0.000
1761606152.352,-29.785,-44.434,-22.949,-46.387,0.000
1761606152.356,-32.715,-34.668,-23.438,-42.969,0.000
1761606152.359,-23.926,-31.738,-22.949,-31.738,0.000
1761606152.363,-23.438,-35.156,-23.926,-27.832,0.000
1761606152.367,-23.926,-37.598,-21.973,-22.461,0.000
1761606152.371,-33.691,-36.621,-21.484,-31.250,0.000
1761606152.375,-42.480,-44.434,-25.391,-44.434,0.000
1761606152.379,-41.504,-48.340,-29.297,-43.457,0.000
1761606152.383,-32.227,-37.109,-27.832,-32.715,0.000
1761606152.387,-20.508,-32.715,-25.391,-18.066,0.000
1761606152.391,-16.602,-34.180,-27.832,-13.184,0.000
1761606152.395,-26.855,-37.598,-29.785,-19.043,0.000
1761606152.398,-28.320,-45.898,-22.949,-21.973,0.000
1761606152.402,-21.973,-44.434,-22.949,-19.531,0.000
1761606152.406,-17.090,-43.945,-29.297,-22.461,0.000
1761606152.410,-22.461,-49.805,-26.855,-20.020,0.000
1761606152.414,-31.250,-46.875,-23.438,-20.020,0.000
1761606152.418,-34.180,-43.457,-23.926,-38.086,0.000
1761606152.422,-26.367,-42.480,-25.879,-29.297,0.000
1761606152.426,-19.043,-41.992,-30.273,-13.672,0.000
1761606152.430,-32.715,-46.387,-32.715,-19.531,0.000
1761606152.434,-36.133,-48.828,-28.320,-26.855,0.000
1761606152.438,-31.738,-49.805,-24.414,-24.902,0.000
1761606152.441,-43.457,-50.293,-24.414,-28.320,0.000
1761606152.445,-46.875,-48.340,-23.438,-31.738,0.000
1761606152.449,-38.574,-45.410,-22.949,-27.832,0.000
1761606152.453,-38.574,-46.875,-23.926,-31.250,0.000
1761606152.457,-38.574,-43.457,-22.949,-28.320,0.000
1761606152.461,-39.062,-41.992,-25.391,-24.902,0.000
1761606152.465,-40.039,-45.410,-20.996,-20.996,0.000
1761606152.469,-42.969,-47.852,-12.695,-8.301,0.000
1761606152.473,-47.363,-44.434,-18.555,-8.301,0.000
1761606152.477,-41.016,-41.016,-21.973,-29.297,0.000
1761606152.481,-35.645,-38.574,-23.438,-35.645,0.000
1761606152.484,-38.086,-39.551,-29.297,-32.227,0.000
1761606152.488,-35.645,-37.598,-29.297,-35.156,0.000
1761606152.492,-31.250,-34.668,-24.902,-27.344,0.000
1761606152.496,-29.785,-36.133,-28.320,-34.668,0.000
1761606152.500,-33.203,-39.551,-34.180,-34.668,0.000
1761606152.504,-35.156,-45.410,-32.715,-32.227,0.000
1761606152.508,-39.062,-45.410,-27.344,-49.316,0.000
1761606152.512,-41.504,-35.645,-30.762,-47.852,0.000
1761606152.516,-39.551,-35.156,-38.086,-41.016,0.000
1761606152.520,-40.039,-39.062,-37.598,-38.086,0.000
1761606152.523,-41.992,-38.086,-34.180,-42.969,0.000
1761606152.527,-47.852,-41.504,-32.227,-51.270,0.000
1761606152.531,-51.758,-46.875,-32.715,-56.641,0.000
1761606152.535,-51.758,-42.480,-28.809,-52.734,0.000
1761606152.539,-55.176,-32.227,-33.203,-44.922,0.000
1761606152.543,-50.781,-29.785,-38.574,-39.551,0.000
1761606152.547,-45.898,-36.133,-31.250,-31.738,0.000
1761606152.551,-48.340,-36.621,-29.297,-40.039,0.000
1761606152.555,-51.758,-34.180,-29.785,-43.457,0.000
1761606152.559,-51.758,-35.645,-26.367,-37.109,0.000
1761606152.563,-53.223,-34.668,-28.809,-46.875,0.000
1761606152.566,-54.199,-33.691,-30.762,-53.711,0.000
1761606152.570,-49.805,-34.668,-26.855,-47.363,0.000
1761606152.574,-47.852,-35.645,-25.391,-42.480,0.000
1761606152.578,-52.246,-35.156,-21.973,-46.387,0.000
1761606152.582,-49.805,-26.855,-24.902,-48.828,0.000
1761606152.586,-38.086,-20.996,-30.762,-43.457,0.000
1761606152.590,-35.156,-19.043,-27.344,-41.504,0.000
1761606152.594,-37.109,-16.602,-24.902,-39.551,0.000
1761606152.598,-38.574,-20.996,-26.855,-45.410,0.000
1761606152.602,-46.875,-30.273,-24.902,-55.664,0.000
1761606152.606,-44.434,-27.832,-23.438,-49.805,0.000
1761606152.609,-41.992,-22.461,-17.090,-50.781,0.000
1761606152.613,-48.828,-20.508,-12.695,-61.035,0.000
1761606152.617,-47.852,-21.973,-21.973,-57.617,0.000
1761606152.621,-51.270,-25.391,-26.367,-61.035,0.000
1761606152.625,-58.105,-24.902,-26.855,-69.336,0.000
1761606152.629,-62.012,-23.438,-29.785,-71.289,0.000
1761606152.633,-63.477,-24.414,-28.809,-72.754,0.000
1761606152.637,-62.500,-27.832,-25.391,-64.453,0.000
1761606152.641,-62.012,-23.926,-25.391,-58.105,0.000
1761606152.645,-62.500,-19.043,-22.461,-64.453,0.000
1761606152.648,-67.383,-19.043,-26.367,-71.777,0.000
1761606152.652,-70.801,-20.508,-30.762,-68.848,0.000
1761606152.656,-67.383,-22.461,-24.902,-66.406,0.000
1761606152.660,-68.359,-26.855,-27.344,-69.824,0.000
1761606152.664,-66.895,-27.344,-31.738,-59.082,0.000
1761606152.668,-59.570,-21.484,-26.367,-51.758,0.000
1761606152.672,-57.617,-18.066,-26.855,-65.430,0.000
1761606152.676,-58.105,-17.578,-33.203,-71.289,0.000
1761606152.680,-60.547,-14.648,-36.133,-70.801,0.000
1761606152.684,-58.594,-13.672,-37.109,-74.707,0.000
1761606152.688,-57.129,-14.160,-33.203,-75.195,0.000
1761606152.691,-57.129,-15.625,-31.250,-70.312,0.000
1761606152.695,-57.617,-18.555,-37.109,-65.430,0.000
1761606152.699,-56.152,-19.531,-42.969,-66.406,0.000
1761606152.703,-56.641,-23.926,-41.992,-59.570,0.000
1761606152.707,-54.688,-30.762,-41.992,-49.316,0.000
1761606152.711,-60.547,-34.180,-40.039,-59.082,0.000
1761606152.715,-62.500,-39.062,-28.320,-69.824,0.000
1761606152.719,-54.688,-35.156,-24.902,-65.430,0.000
1761606152.723,-52.734,-24.902,-30.273,-63.477,0.000
1761606152.727,-48.828,-20.020,-32.227,-64.941,0.000
1761606152.731,-52.734,-21.973,-35.156,-68.848,0.000
1761606152.734,-54.688,-27.344,-43.945,-69.336,0.000
1761606152.738,-54.688,-39.551,-42.969,-66.895,0.000
1761606152.742,-57.129,-42.969,-37.109,-58.105,0.000
1761606152.746,-42.480,-30.273,-39.062,-51.270,0.000
1761606152.750,-29.785,-29.297,-33.691,-43.945,0.000
1761606152.754,-47.363,-36.621,-35.645,-60.547,0.000
1761606152.758,-56.641,-37.598,-40.039,-76.172,0.000
1761606152.762,-52.734,-32.715,-35.645,-65.918,0.000
1761606152.766,-46.387,-32.227,-32.227,-60.059,0.000
1761606152.770,-42.480,-32.715,-32.715,-53.223,0.000
1761606152.773,-48.340,-31.250,-38.574,-49.805,0.000
1761606152.777,-42.969,-32.715,-41.992,-60.059,0.000
1761606152.781,-34.180,-30.762,-37.598,-61.523,0.000
1761606152.785,-41.016,-30.762,-39.062,-50.781,0.000
1761606152.789,-46.387,-37.109,-36.133,-53.223,0.000
1761606152.793,-32.715,-37.598,-30.762,-46.875,0.000
1761606152.797,-23.926,-31.250,-33.691,-32.715,0.000
1761606152.801,-29.297,-34.668,-34.180,-39.062,0.000
1761606152.805,-33.691,-36.621,-32.227,-42.969,0.000
1761606152.809,-36.133,-36.133,-28.320,-47.852,0.000
1761606152.813,-41.016,-38.086,-32.227,-53.223,0.000
1761606152.816,-39.551,-36.621,-34.180,-50.293,0.000
1761606152.820,-35.645,-34.180,-28.320,-47.363,0.000
1761606152.824,-35.645,-33.691,-28.320,-50.781,0.000
1761606152.828,-34.180,-35.645,-32.715,-42.969,0.000
1761606152.832,-37.109,-35.156,-34.668,-37.109,0.000
1761606152.836,-45.410,-32.227,-36.133,-46.387,0.000
1761606152.840,-47.363,-32.227,-36.621,-46.875,0.000
1761606152.844,-46.387,-34.180,-28.809,-49.805,0.000
1761606152.848,-42.969,-36.621,-23.926,-45.898,0.000
1761606152.852,-39.062,-33.691,-30.273,-36.133,0.000
1761606152.855,-33.691,-29.297,-29.297,-34.668,0.000
1761606152.859,-43.945,-29.297,-28.809,-43.457,0.000
1761606152.863,-49.805,-32.227,-35.645,-48.340,0.000
1761606152.867,-32.227,-35.645,-30.762,-39.062,0.000
1761606152.871,-26.367,-33.691,-24.902,-35.645,0.000
1761606152.875,-27.344,-30.273,-28.809,-23.926,0.000
1761606152.879,-28.809,-36.621,-30.762,-24.902,0.000
1761606152.883,-30.762,-35.645,-28.320,-40.039,0.000
1761606152.887,-28.320,-26.855,-31.738,-34.180,0.000
1761606152.891,-24.902,-25.879,-39.551,-28.809,0.000
1761606152.895,-23.926,-27.344,-38.574,-31.738,0.000
1761606152.898,-29.297,-29.785,-36.621,-33.203,0.000
1761606152.902,-30.762,-30.273,-35.645,-32.715,0.000
1761606152.906,-27.344,-29.785,-26.855,-32.715,0.000
1761606152.910,-30.762,-33.203,-22.461,-29.297,0.000
1761606152.914,-24.414,-27.832,-27.344,-26.855,0.000
1761606152.918,-22.461,-22.461,-28.320,-25.879,0.000
1761606152.922,-31.738,-25.879,-25.879,-21.484,0.000
1761606152.926,-43.457,-30.273,-20.996,-27.344,0.000
1761606152.930,-46.387,-36.133,-20.508,-29.785,0.000
1761606152.934,-45.410,-40.039,-20.508,-29.785,0.000
1761606152.938,-48.828,-38.086,-23.926,-34.180,0.000
1761606152.941,-48.828,-39.551,-28.320,-42.969,0.000
1761606152.945,-38.574,-39.062,-24.902,-45.898,0.000
1761606152.949,-31.250,-34.668,-22.461,-36.621,0.000
1761606152.953,-32.227,-35.156,-20.996,-40.039,0.000
1761606152.957,-25.391,-38.574,-20.508,-39.551,0.000
1761606152.961,-23.926,-38.574,-21.484,-38.574,0.000
1761606152.965,-25.391,-39.062,-26.367,-36.621,0.000
1761606152.969,-20.508,-40.039,-32.715,-27.344,0.000
1761606152.973,-18.555,-34.180,-29.297,-24.902,0.000
1761606152.977,-22.461,-32.227,-27.832,-32.715,0.000
1761606152.980,-19.043,-35.645,-23.926,-20.508,0.000
1761606152.984,-27.832,-39.551,-25.391,-17.578,0.000
1761606152.988,-44.922,-43.457,-26.855,-41.992,0.000
1761606152.992,-46.875,-42.480,-19.531,-42.969,0.000
1761606152.996,-38.574,-37.109,-23.438,-36.621,0.000
1761606153.000,-37.598,-37.109,-30.273,-35.156,0.000
1761606153.004,-41.504,-36.621,-28.809,-27.832,0.000
1761606153.008,-46.387,-41.992,-27.832,-34.180,0.000
1761606153.012,-49.805,-43.457,-26.855,-39.551,0.000
1761606153.016,-51.758,-36.621,-26.367,-39.551,0.000
1761606153.020,-55.176,-40.527,-24.902,-49.805,0.000
1761606153.023,-51.270,-36.133,-26.855,-41.992,0.000
1761606153.027,-45.898,-33.203,-25.879,-31.738,0.000
1761606153.031,-43.945,-42.969,-19.043,-30.762,0.000
1761606153.035,-39.551,-44.434,-23.438,-32.227,0.000
1761606153.039,-37.598,-37.598,-24.414,-33.691,0.000
1761606153.043,-34.180,-26.855,-18.555,-25.391,0.000
1761606153.047,-34.180,-28.809,-18.555,-25.391,0.000
1761606153.051,-38.086,-39.551,-16.113,-24.902,0.000
1761606153.055,-37.109,-38.086,-20.508,-22.949,0.000
1761606153.059,-35.156,-34.180,-27.832,-24.902,0.000
1761606153.063,-33.203,-33.203,-32.227,-28.809,0.000
1761606153.066,-31.250,-32.715,-33.691,-40.039,0.000
1761606153.070,-30.273,-34.668,-32.227,-40.039,0.000
1761606153.074,-36.133,-32.715,-29.297,-41.992,0.000
1761606153.078,-41.992,-33.691,-30.762,-51.270,0.000
1761606153.082,-34.668,-36.133,-31.250,-50.293,0.000
1761606153.086,-25.879,-29.297,-24.902,-39.551,0.000
1761606153.090,-28.320,-23.438,-27.344,-31.738,0.000
1761606153.094,-29.297,-30.762,-27.344,-35.645,0.000
1761606153.098,-32.715,-31.250,-24.902,-37.109,0.000
1761606153.102,-41.504,-31.250,-28.809,-43.945,0.000
1761606153.105,-39.062,-33.203,-24.902,-47.363,0.000
1761606153.109,-34.180,-30.273,-19.531,-40.039,0.000
1761606153.113,-34.668,-32.227,-20.508,-35.156,0.000
1761606153.117,-43.457,-33.203,-23.438,-35.645,0.000
1761606153.121,-52.246,-28.809,-24.414,-43.945,0.000
1761606153.125,-52.734,-30.273,-26.855,-47.363,0.000
1761606153.129,-55.664,-36.133,-30.273,-54.688,0.000
1761606153.133,-40.527,-31.250,-30.762,-53.223,0.000
1761606153.137,-27.832,-30.273,-33.203,-42.969,0.000
1761606153.141,-38.574,-38.574,-30.762,-44.922,0.000
1761606153.145,-41.016,-42.969,-24.902,-36.133,0.000
1761606153.148,-36.133,-39.551,-27.832,-38.574,0.000
1761606153.152,-28.320,-31.738,-31.738,-43.457,0.000
1761606153.156,-25.879,-31.738,-33.203,-43.945,0.000
1761606153.160,-21.484,-31.738,-31.250,-45.898,0.000
1761606153.164,-20.996,-31.738,-34.180,-42.480,0.000
1761606153.168,-30.273,-31.738,-40.039,-45.898,0.000
1761606153.172,-31.738,-32.227,-38.574,-48.340,0.000
1761606153.176,-30.273,-30.273,-29.785,-42.480,0.000
1761606153.180,-32.227,-29.297,-32.715,-47.363,0.000
1761606153.184,-33.691,-32.227,-40.527,-47.363,0.000
1761606153.188,-37.598,-35.645,-36.133,-39.062,0.000
1761606153.191,-42.969,-36.621,-31.738,-34.180,0.000
1761606153.195,-44.922,-38.086,-33.203,-35.645,0.000
1761606153.199,-45.410,-39.062,-31.738,-38.574,0.000
1761606153.203,-46.387,-41.992,-31.250,-36.133,0.000
1761606153.207,-41.992,-36.621,-30.273,-33.203,0.000
1761606153.211,-31.250,-26.855,-29.785,-34.668,0.000
1761606153.215,-23.926,-28.809,-30.762,-37.598,0.000
1761606153.219,-23.438,-32.715,-30.762,-41.992,0.000
1761606153.223,-26.367,-36.133,-37.598,-42.969,0.000
1761606153.227,0.000,-32.715,-41.016,-41.992,0.000
1761606153.230,0.000,-32.715,-32.227,-39.551,0.000
1761606153.234,0.000,-35.156,-30.273,-38.086,0.000
1761606153.238,0.000,-30.273,-37.109,-38.086,0.000
1761606153.242,0.000,-29.297,-38.574,-41.992,0.000
1761606153.246,0.000,-32.227,-36.621,-35.645,0.000
1761606153.250,0.000,-29.785,-35.645,-23.926,0.000
1761606153.254,0.000,-27.344,-28.809,-24.902,0.000
1761606153.258,0.000,-20.996,-22.949,-26.367,0.000
1761606153.262,0.000,-25.879,-31.250,-33.691,0.000
1761606153.266,0.000,-34.668,-42.480,-45.410,0.000
1761606153.270,0.000,-30.762,-45.410,-44.434,0.000
1761606153.273,-31.250,-27.344,-43.945,-41.992,0.000
1761606153.277,-29.785,-26.855,-42.480,-29.785,0.000
1761606153.281,-22.461,-25.391,-37.598,-21.973,0.000
1761606153.285,-23.438,-25.879,-30.762,-16.113,0.000
1761606153.289,-26.855,-24.902,-28.320,-18.555,0.000
1761606153.293,-25.879,-27.832,-30.273,-34.180,0.000
1761606153.297,-19.531,-27.344,-34.180,-35.156,0.000
1761606153.301,-20.996,-23.438,-33.691,-24.414,0.000
1761606153.305,-30.273,-31.250,-30.273,-25.391,0.000
1761606153.309,-33.691,-33.203,-29.297,-33.691,0.000
1761606153.313,-42.480,-36.133,-33.691,-41.992,0.000
1761606153.316,-55.176,-45.410,-34.180,-45.898,0.000
1761606153.320,-51.758,-41.992,-29.297,0.000,0.000
1761606153.324,-49.316,-35.156,-30.762,0.000,0.000
1761606153.328,-39.062,-29.297,-30.762,0.000,0.000
1761606153.332,-32.715,-25.391,-24.414,0.000,0.000
1761606153.336,-36.621,-29.785,-19.043,0.000,0.000
1761606153.340,-39.551,-33.691,-20.996,0.000,0.000
1761606153.344,-42.480,-34.180,-24.414,0.000,0.000
1761606153.348,-34.668,-31.738,-26.855,0.000,0.000
1761606153.352,-26.367,-32.715,-24.414,0.000,0.000
1761606153.355,-31.250,-33.691,-24.902,0.000,0.000
1761606153.359,-41.504,-34.668,-24.902,0.000,0.000
1761606153.363,-39.062,-31.738,-24.414,0.000,0.000
1761606153.367,-31.738,-28.809,-32.227,-42.969,0.000
1761606153.371,-21.973,-28.320,-28.320,-36.133,0.000
1761606153.375,-22.461,-31.250,-27.832,-37.109,0.000
1761606153.379,-30.762,-36.621,-37.109,-45.410,0.000
1761606153.383,-32.227,-34.668,-41.016,-47.363,0.000
1761606153.387,-31.250,-36.621,-44.922,-45.410,0.000
1761606153.391,-36.621,-34.668,-43.457,-45.410,0.000
1761606153.395,-49.316,-38.574,-41.992,-52.246,0.000
1761606153.398,-52.734,-42.969,-41.504,-41.992,0.000
1761606153.402,-53.223,-41.504,-38.574,-33.203,0.000
1761606153.406,-61.523,-40.039,-38.574,-48.340,0.000
1761606153.410,-61.035,-36.621,-34.668,-42.480,0.000
1761606153.414,-59.082,-35.645,-34.668,-34.180,0.000
1761606153.418,-59.082,-40.039,-37.109,-37.109,0.000
1761606153.422,-52.246,-39.062,-39.062,-37.598,0.000
1761606153.426,-52.246,-38.574,-36.621,-35.645,0.000
1761606153.430,-56.641,-38.086,-37.598,-42.969,0.000
1761606153.434,-49.805,-39.062,-41.992,-45.898,0.000
1761606153.438,-43.945,-44.434,-38.574,-42.969,0.000
1761606153.441,-43.457,-41.992,-35.156,-49.316,0.000
1761606153.445,-36.621,-35.156,-34.668,-39.062,0.000
1761606153.449,-38.086,-34.668,-38.574,-40.039,0.000
1761606153.453,-48.340,-37.598,-37.598,-52.734,0.000
1761606153.457,-42.969,-34.668,-29.785,-47.852,0.000
1761606153.461,-37.598,-33.691,-29.297,-38.574,0.000
1761606153.465,-41.992,-38.574,-33.203,-46.875,0.000
1761606153.469,-45.410,-38.574,-32.227,-49.805,0.000
1761606153.473,-40.039,-35.645,-38.574,-42.480,0.000
1761606153.477,-37.598,-36.133,-45.898,-46.875,0.000
1761606153.480,-42.480,-38.086,-39.551,-49.805,0.000
1761606153.484,-44.922,-36.133,-36.621,-41.504,0.000
1761606153.488,-41.992,-37.109,-37.598,-38.086,0.000
1761606153.492,-32.715,-37.109,-31.738,-33.203,0.000
1761606153.496,-41.992,-37.598,-32.715,-42.480,0.000
1761606153.500,-41.504,-36.133,-31.738,-46.387,0.000
1761606153.504,-32.227,-33.691,-26.855,-26.855,0.000
1761606153.508,-39.062,-33.691,-30.273,-33.691,0.000
1761606153.512,-34.180,-30.273,-32.227,-43.945,0.000
1761606153.516,-25.879,-29.297,-33.691,-37.109,0.000
1761606153.520,-27.344,-34.180,-38.086,-32.227,0.000
1761606153.523,-37.598,-37.109,-38.086,-33.691,0.000
1761606153.527,-40.039,-37.109,-35.645,-37.109,0.000
1761606153.531,-28.320,-38.574,-38.574,-36.133,0.000
1761606153.535,-24.414,-36.621,-32.227,-28.320,0.000
1761606153.539,-34.180,-39.062,-28.320,-34.180,0.000
1761606153.543,-34.668,-40.039,-32.227,-38.086,0.000
1761606153.547,-36.133,-41.504,-35.156,-42.480,0.000
1761606153.551,-32.715,-34.668,-33.691,-49.805,0.000
1761606153.555,-26.855,-25.391,-32.227,-37.598,0.000
1761606153.559,-25.879,-25.391,-31.738,-34.668,0.000
1761606153.563,-23.926,-28.809,-32.715,-42.480,0.000
1761606153.566,-20.508,-30.273,-37.109,-41.992,0.000
1761606153.570,-24.414,-34.668,-37.598,-41.504,0.000
1761606153.574,-33.203,-32.227,-39.062,-44.434,0.000
1761606153.578,-32.715,-24.414,-43.457,-37.598,0.000
1761606153.582,-32.227,-28.320,-42.969,-32.227,0.000
1761606153.586,-32.227,-33.691,-43.945,-36.621,0.000
1761606153.590,-32.227,-34.180,-39.062,-43.457,0.000
1761606153.594,-36.133,-30.762,-33.691,-45.898,0.000
1761606153.598,-36.621,-33.691,-34.180,-40.039,0.000
1761606153.602,0.000,-37.598,-40.039,-41.992,0.000
1761606153.605,0.000,-36.133,-38.574,-44.922,0.000
1761606153.609,0.000,-35.156,-31.738,-51.758,0.000
1761606153.613,0.000,-33.691,-36.133,-63.477,0.000
1761606153.617,0.000,-38.086,-31.250,-60.547,0.000
1761606153.621,0.000,-41.016,-29.297,-48.340,0.000
1761606153.625,0.000,-41.992,-33.203,-41.016,0.000
1761606153.629,0.000,-39.551,-29.785,-46.387,0.000
1761606153.633,0.000,-33.691,-29.297,-41.504,0.000
1761606153.637,0.000,-39.062,-31.738,-34.180,0.000
1761606153.641,0.000,-36.621,-33.203,-45.410,0.000
1761606153.645,0.000,-30.273,-28.320,-40.527,0.000
1761606153.648,-26.855,-32.715,-25.391,-28.320,0.000
1761606153.652,-20.020,-32.715,-29.297,-25.879,0.000
1761606153.656,-19.043,-32.227,-24.414,-28.320,0.000
1761606153.660,-31.738,-34.180,-24.902,-39.551,0.000
1761606153.664,-40.039,-32.715,-30.273,-51.758,0.000
1761606153.668,-33.203,-31.250,-30.762,-45.410,0.000
1761606153.672,-42.969,-36.621,-37.109,-52.734,0.000
1761606153.676,-48.340,-38.574,-38.574,-61.035,0.000
1761606153.680,-30.273,-33.691,-29.297,-41.016,0.000
1761606153.684,-28.809,-29.297,-24.414,-32.715,0.000
1761606153.687,-33.691,-31.738,-27.344,-36.133,0.000
1761606153.691,-35.156,-34.180,-30.273,-33.691,0.000
1761606153.695,-31.250,-34.668,-26.367,-30.762,0.000
1761606153.699,-30.762,-37.109,-23.926,-29.297,0.000
1761606153.703,-35.156,-34.668,-22.949,-27.832,0.000
1761606153.707,-40.039,-36.621,-23.438,-32.227,0.000
1761606153.711,-40.527,-33.203,-28.320,-41.504,0.000
1761606153.715,-32.715,-31.738,-27.832,-32.715,0.000
1761606153.719,-30.762,-33.691,-19.531,-17.578,0.000
1761606153.723,-33.203,-28.320,-26.367,-26.367,0.000
1761606153.727,-32.715,-27.344,-35.645,-36.621,0.000
1761606153.730,-34.668,-31.738,-33.691,-22.949,0.000
1761606153.734,-30.762,-33.203,-32.227,-28.809,0.000
1761606153.738,-29.297,-33.203,-26.367,-34.668,0.000
1761606153.742,-31.738,-37.598,-28.809,-38.574,0.000
1761606153.746,-33.203,-39.551,-29.785,-52.734,0.000
1761606153.750,-41.992,-38.574,-27.344,-45.410,0.000
1761606153.754,-40.039,-34.180,-27.344,-38.086,0.000
1761606153.758,-35.156,-29.297,-21.484,-34.668,0.000
1761606153.762,-37.109,-32.715,-17.090,-21.973,0.000
1761606153.766,-32.715,-36.621,-19.531,-26.367,0.000
1761606153.770,-37.109,-37.109,-21.973,-37.598,0.000
1761606153.773,-40.527,-35.645,-23.926,-30.762,0.000
1761606153.777,-34.180,-31.250,-28.809,-22.949,0.000
1761606153.781,-39.062,-31.738,-24.414,-32.715,0.000
1761606153.785,-40.527,-31.738,-25.391,-38.086,0.000
1761606153.789,-38.086,-28.320,-27.832,-39.062,0.000
1761606153.793,-34.180,-30.762,-29.785,-33.691,0.000
1761606153.797,-27.344,-31.738,-29.297,-37.109,0.000
1761606153.801,-34.180,-35.156,-26.855,-42.969,0.000
1761606153.805,-42.480,-35.645,-26.855,-37.109,0.000
1761606153.809,-40.527,-35.645,-28.809,-32.715,0.000
1761606153.813,-48.828,-41.992,-31.250,-40.039,0.000
1761606153.816,-43.945,-37.109,-29.297,-37.598,0.000
1761606153.820,-35.645,-28.809,-26.855,-25.879,0.000
1761606153.824,-38.086,-26.855,-23.926,-27.344,0.000
1761606153.828,-26.855,-25.391,-28.809,-22.949,0.000
1761606153.832,-29.785,-30.273,-38.574,-28.320,0.000
1761606153.836,-40.039,-31.250,-39.551,-30.273,0.000
1761606153.840,-36.133,-28.320,-35.645,-28.320,0.000
1761606153.844,-27.832,-30.762,-31.738,-35.156,0.000
1761606153.848,-23.926,-28.320,-34.180,-29.297,0.000
1761606153.852,-27.344,-27.344,-37.598,-24.902,0.000
1761606153.855,-28.320,-28.809,-36.621,-35.156,0.000
1761606153.859,-40.039,-31.250,-33.691,-42.969,0.000
1761606153.863,-43.457,-32.227,-31.738,-39.551,0.000
1761606153.867,-33.203,-32.227,-36.133,-35.645,0.000
1761606153.871,-34.668,-35.645,-37.598,-40.039,0.000
1761606153.875,-42.480,-38.574,-40.039,-49.805,0.000
1761606153.879,-43.945,-34.180,-38.574,-49.805,0.000
1761606153.883,-43.945,-33.203,-32.715,-48.828,0.000
1761606153.887,-46.875,-26.855,-31.738,-54.199,0.000
1761606153.891,-49.805,-25.879,-31.738,-53.223,0.000
1761606153.895,-53.223,-31.250,-27.832,-48.340,0.000
1761606153.898,-54.199,-28.809,-29.785,-50.781,0.000
1761606153.902,-49.316,-22.949,-33.203,-46.875,0.000
1761606153.906,-44.922,-20.996,-39.062,-41.016,0.000
1761606153.910,-42.480,-22.949,-43.457,-40.039,0.000
1761606153.914,-41.992,-25.879,-40.527,-37.598,0.000
1761606153.918,-41.016,-26.367,-41.016,-37.109,0.000
1761606153.922,-39.062,-22.461,-37.109,-43.945,0.000
1761606153.926,-38.574,-22.461,-34.668,-51.758,0.000
1761606153.930,-28.809,-21.484,-40.527,-46.387,0.000
1761606153.934,-23.926,-20.020,-40.527,-41.016,0.000
1761606153.938,-29.297,-27.344,-36.133,-47.363,0.000
1761606153.941,-22.461,-27.344,-38.086,-44.922,0.000
1761606153.945,-20.508,-24.414,-41.504,-45.898,0.000
1761606153.949,-26.855,-27.832,-42.969,-49.805,0.000
1761606153.953,-18.066,-25.879,-41.992,-45.410,0.000
1761606153.957,-11.719,-24.414,-30.762,-38.574,0.000
1761606153.961,-20.996,-24.414,-20.996,-31.738,0.000
1761606153.965,-22.949,-24.902,-24.902,-33.203,0.000
1761606153.969,-21.973,-26.367,-28.320,-32.227,0.000
1761606153.973,-31.738,-27.344,-30.273,-32.227,0.000
1761606153.977,-33.203,-23.438,-27.832,-45.898,0.000
1761606153.980,-26.367,-16.602,-29.785,-42.969,0.000
1761606153.984,-30.273,-22.949,-35.645,-37.598,0.000
1761606153.988,-32.715,-29.297,-35.156,-42.969,0.000
1761606153.992,-31.250,-31.250,-38.574,-44.922,0.000
1761606153.996,-29.297,-30.762,-36.133,-35.645,0.000
1761606154.000,-24.902,-31.738,-31.738,-27.832,0.000
1761606154.004,-24.414,-32.715,-29.785,-31.738,0.000
1761606154.008,-28.809,-33.203,-31.250,-38.574,0.000
1761606154.012,-30.762,-32.715,-35.156,-37.598,0.000
1761606154.016,-21.973,-29.785,-37.109,-29.297,0.000
1761606154.020,-15.625,-28.320,-34.668,-34.668,0.000
1761606154.023,-22.949,-25.879,-32.715,-45.410,0.000
1761606154.027,-32.715,-27.832,-37.109,-48.340,0.000
1761606154.031,-29.785,-26.367,-32.715,-43.945,0.000
1761606154.035,-25.879,-28.320,-28.809,-44.922,0.000
1761606154.039,-21.973,-28.320,-30.762,-47.363,0.000
1761606154.043,-19.531,-29.785,-28.809,-36.621,0.000
1761606154.047,-24.902,-38.574,-27.832,-30.273,0.000
1761606154.051,-39.062,-46.387,-29.297,-49.316,0.000
1761606154.055,-49.805,-41.016,-29.785,-61.035,0.000
1761606154.059,-44.434,-35.156,-28.320,-52.246,0.000
1761606154.062,-42.969,-41.504,-29.297,-48.340,0.000
1761606154.066,-44.434,-40.039,-34.180,-43.945,0.000
1761606154.070,-41.504,-32.227,-30.762,-35.645,0.000
1761606154.074,-46.875,-34.668,-27.832,-50.293,0.000
1761606154.078,-57.129,-37.598,-33.691,-66.895,0.000
1761606154.082,-52.246,-33.203,-34.180,-56.152,0.000
1761606154.086,-43.945,-32.715,-26.367,-46.875,0.000
1761606154.090,-44.434,-36.621,-27.832,-48.340,0.000
1761606154.094,-42.480,-34.180,-31.250,-41.992,0.000
1761606154.098,-32.715,-28.320,-26.855,-36.133,0.000
1761606154.102,-30.273,-32.715,-25.391,-41.016,0.000
1761606154.105,-40.527,-35.156,-22.949,-45.410,0.000
1761606154.109,-41.016,-36.133,-25.879,-49.316,0.000
1761606154.113,-39.062,-40.039,-29.297,-41.504,0.000
1761606154.117,-34.180,-39.551,-24.414,-21.484,0.000
1761606154.121,-26.367,-35.156,-27.344,-24.414,0.000
1761606154.125,-29.297,-30.762,-33.691,-49.805,0.000
1761606154.129,-39.062,-30.762,-31.250,-54.199,0.000
1761606154.133,-31.250,-33.203,-24.902,-34.668,0.000
1761606154.137,-26.855,-35.645,-28.320,-28.320,0.000
1761606154.141,-36.133,-36.621,-34.180,-40.527,0.000
1761606154.145,-36.621,-42.480,-34.668,-45.898,0.000
1761606154.148,-32.715,-41.992,-37.109,-35.156,0.000
1761606154.152,-33.203,-35.156,-38.574,-34.668,0.000
1761606154.156,-35.645,-36.621,-38.574,-38.574,0.000
1761606154.160,-35.156,-35.645,-33.203,-35.156,0.000
1761606154.164,0.000,-36.621,-32.715,-42.480,0.000
1761606154.168,0.000,-38.086,-41.016,-43.945,0.000
1761606154.172,0.000,-38.086,-33.203,-47.363,0.000
1761606154.176,0.000,-38.086,-20.020,-41.504,0.000
1761606154.180,0.000,-37.109,-21.484,-27.344,0.000
1761606154.184,0.000,-40.039,-26.367,-32.227,0.000
1761606154.187,0.000,-39.062,-29.297,-40.527,0.000
1761606154.191,0.000,-38.574,-26.367,-45.410,0.000
1761606154.195,0.000,-42.969,-26.367,-40.039,0.000
1761606154.199,0.000,-39.062,-28.809,-37.598,0.000
1761606154.203,0.000,-35.645,-28.809,-40.527,0.000
1761606154.207,0.000,-37.109,-30.762,-37.598,0.000
1761606154.211,-48.340,-39.551,-30.762,-41.992,0.000
1761606154.215,-38.574,-40.039,-23.438,-45.410,0.000
1761606154.219,-32.715,-34.180,-26.367,-41.992,0.000
1761606154.223,-43.945,-33.691,-28.809,-40.039,0.000
1761606154.227,-35.156,-28.809,-20.996,-33.691,0.000
1761606154.230,-22.949,-24.414,-23.926,-27.344,0.000
1761606154.234,-22.949,-27.832,-30.273,-26.855,0.000
1761606154.238,-33.203,-30.273,-29.785,-31.250,0.000
1761606154.242,-42.480,-33.203,-27.832,-32.227,0.000
1761606154.246,-43.945,-34.668,-21.973,-32.715,0.000
1761606154.250,-44.922,-34.180,-14.648,-37.598,0.000
1761606154.254,-52.246,-32.715,-20.996,-41.016,0.000
1761606154.258,-57.129,-32.227,-30.273,-39.551,0.000
1761606154.262,-50.293,-34.668,-25.879,-37.598,0.000
1761606154.266,-38.086,-31.250,-22.949,-35.156,0.000
1761606154.270,-35.156,-33.691,-25.391,-38.086,0.000
1761606154.273,-46.875,-35.645,-29.297,-51.758,0.000
1761606154.277,-47.852,-30.762,-34.180,-56.641,0.000
1761606154.281,-41.992,-29.785,-37.109,-48.340,0.000
1761606154.285,-41.504,-31.738,-35.156,-41.016,0.000
1761606154.289,-43.945,-36.133,-34.180,-43.945,0.000
1761606154.293,-50.781,-37.598,-34.180,-52.246,0.000
1761606154.297,-51.270,-36.621,-31.250,-52.734,0.000
1761606154.301,-50.781,-38.574,-31.250,-49.316,0.000
1761606154.305,-46.875,-44.922,-31.250,-45.898,0.000
1761606154.309,-42.480,-42.969,-27.832,-44.922,0.000
1761606154.312,-41.504,-36.133,-21.484,-37.598,0.000
1761606154.316,-36.133,-33.691,-22.949,-26.367,0.000
1761606154.320,-33.691,-33.691,-30.273,-23.438,0.000
1761606154.324,-44.434,-31.250,-32.715,-34.180,0.000
1761606154.328,-43.945,-36.621,-31.250,-24.902,0.000
1761606154.332,-40.527,-41.992,-38.574,-18.066,0.000
1761606154.336,-44.434,-34.180,-43.457,-28.809,0.000
1761606154.340,-38.086,-30.273,-42.480,-21.973,0.000
1761606154.344,-40.527,-33.691,-42.969,-23.438,0.000
1761606154.348,-44.434,-32.227,-41.504,-28.809,0.000
1761606154.352,-36.621,-34.668,-40.527,-35.156,0.000
1761606154.355,-41.016,-41.016,-39.551,-43.945,0.000
1761606154.359,-52.734,-40.527,-35.645,-52.246,0.000
1761606154.363,-52.246,-43.457,-36.133,-61.035,0.000
1761606154.367,-43.457,-38.086,-32.227,-62.012,0.000
1761606154.371,-36.621,-34.668,-28.809,-57.129,0.000
1761606154.375,-41.016,-35.156,-26.855,-41.016,0.000
1761606154.379,-38.574,-27.832,-19.043,-32.715,0.000
1761606154.383,-35.645,-26.855,-20.996,-38.574,0.000
1761606154.387,-35.156,-25.391,-29.297,-32.227,0.000
1761606154.391,-35.156,-20.020,-33.691,-31.738,0.000
1761606154.394,-34.180,-15.137,-32.715,-32.227,0.000
1761606154.398,-28.809,-22.461,-32.227,-33.203,0.000
1761606154.402,-31.738,-28.809,-37.598,-35.156,0.000
1761606154.406,-33.691,-27.344,-43.945,-28.320,0.000
1761606154.410,-24.902,-32.227,-45.898,-24.414,0.000
1761606154.414,-21.973,-33.691,-42.969,-16.602,0.000
1761606154.418,-24.902,-35.645,-40.039,-15.137,0.000
1761606154.422,-30.273,-37.598,-40.039,-26.367,0.000
1761606154.426,-29.785,-37.109,-36.133,-21.484,0.000
1761606154.430,-20.020,-34.180,-30.762,-11.719,0.000
1761606154.434,-18.555,-34.668,-31.250,-14.648,0.000
1761606154.437,-21.973,-36.133,-30.273,-20.020,0.000
1761606154.441,-24.902,-33.203,-31.250,-29.297,0.000
1761606154.445,-28.809,-33.203,-34.668,-29.785,0.000
1761606154.449,-35.645,-38.086,-33.203,-34.668,0.000
1761606154.453,-27.832,-35.645,-29.785,-39.551,0.000
1761606154.457,-20.508,-32.227,-29.297,-39.062,0.000
1761606154.461,-20.020,-31.250,-27.832,-41.992,0.000
1761606154.465,-10.742,-31.250,-24.414,-36.133,0.000
1761606154.469,-18.555,-33.691,-23.926,-41.992,0.000
1761606154.473,-34.180,-31.250,-22.461,-51.758,0.000
1761606154.477,-30.762,-28.320,-21.973,-45.410,0.000
1761606154.480,-22.461,-30.273,-23.926,-34.668,0.000
1761606154.484,-26.367,-30.762,-23.438,-36.133,0.000
1761606154.488,-31.738,-30.762,-24.414,-42.480,0.000
1761606154.492,-26.855,-27.832,-20.508,-41.992,0.000
1761606154.496,-19.043,-23.926,-23.438,-44.434,0.000
1761606154.500,-13.672,-24.414,-28.320,-50.781,0.000
1761606154.504,-19.043,-26.855,-19.531,-46.875,0.000
1761606154.508,-21.484,-23.926,-17.578,-39.062,0.000
1761606154.512,-29.785,-25.879,-22.949,-46.875,0.000
1761606154.516,-34.180,-26.855,-22.461,-48.340,0.000
1761606154.519,-33.691,-24.902,-24.414,-47.363,0.000
1761606154.523,-32.227,-25.391,-30.762,-45.898,0.000
1761606154.527,-35.645,-30.273,-32.227,-45.898,0.000
1761606154.531,-35.645,-34.180,-29.785,-54.199,0.000
1761606154.535,-30.273,-29.785,-33.691,-52.734,0.000
1761606154.539,-27.832,-33.203,-36.621,-50.293,0.000
1761606154.543,-27.832,-31.738,-33.691,-42.480,0.000
